wavelength,scan1-2,scan2-2,absorbance2,scan1-4,scan2-4,absorbance4
,,,,,,
3997.10764,0.00018,0.0003,0.00024,0.00015,0.00013,0.00014
3995.04728,0.00024,0.00038,0.00031,0.00006,0.00006,0.00006
3992.98691,0.00019,0.00038,0.000285,0.00012,0.00009,0.000105
3990.92655,0.00004,0.00023,0.000135,0.00029,0.00039,0.00034
3988.86618,0,0.0001,0.00005,0.00035,0.00059,0.00047
3986.80582,0.00004,0,0.00002,0.00028,0.00051,0.000395
3984.74545,0.00003,0.00002,0.000025,0.00028,0.00041,0.000345
3982.68509,0.00003,0.00013,0.00008,0.00045,0.00041,0.00043
3980.62472,0.00005,0.00024,0.000145,0.00061,0.00042,0.000515
3978.56436,0.00004,0.00041,0.000225,0.00063,0.00045,0.00054
3976.50399,0.00007,0.00051,0.00029,0.00058,0.00047,0.000525
3974.44363,0.00019,0.00052,0.000355,0.00043,0.00037,0.0004
3972.38326,0.00028,0.00048,0.00038,0.0002,0.00016,0.00018
3970.3229,0.00024,0.00035,0.000295,0,0,0
3968.26253,0.0002,0.00033,0.000265,-0.00005,0.00001,-0.00002
3966.20217,0.00028,0.00047,0.000375,-0.00001,0.0001,0.000045
3964.1418,0.00038,0.00054,0.00046,0.00004,0.00021,0.000125
3962.08144,0.00031,0.00045,0.00038,0.00015,0.0004,0.000275
3960.02108,0.00019,0.00035,0.00027,0.00027,0.00051,0.00039
3957.96071,0.00016,0.00034,0.00025,0.00034,0.00047,0.000405
3955.90035,0.00023,0.00045,0.00034,0.00043,0.00047,0.00045
3953.83998,0.00034,0.00063,0.000485,0.00037,0.00051,0.00044
3951.77962,0.00036,0.00074,0.00055,0.00014,0.00052,0.00033
3949.71925,0.00033,0.00082,0.000575,0,0.00043,0.000215
3947.65889,0.00026,0.0009,0.00058,0,0.00022,0.00011
3945.59852,0.00018,0.00099,0.000585,0.00014,0.00017,0.000155
3943.53816,0.0002,0.00098,0.00059,0.0004,0.00033,0.000365
3941.47779,0.00029,0.00075,0.00052,0.00055,0.00044,0.000495
3939.41743,0.00037,0.00053,0.00045,0.00046,0.00046,0.00046
3937.35706,0.0004,0.00046,0.00043,0.00035,0.0005,0.000425
3935.2967,0.00023,0.00042,0.000325,0.00042,0.00057,0.000495
3933.23633,0.00004,0.00045,0.000245,0.00057,0.00064,0.000605
3931.17597,0.00009,0.00053,0.00031,0.00058,0.00064,0.00061
3929.1156,0.00034,0.0006,0.00047,0.00046,0.00057,0.000515
3927.05524,0.00065,0.00075,0.0007,0.00042,0.00045,0.000435
3924.99487,0.00074,0.00091,0.000825,0.00043,0.00038,0.000405
3922.93451,0.00054,0.001,0.00077,0.00046,0.00046,0.00046
3920.87414,0.00039,0.00099,0.00069,0.00053,0.00057,0.00055
3918.81378,0.00037,0.00085,0.00061,0.00058,0.00054,0.00056
3916.75342,0.00026,0.00058,0.00042,0.00053,0.00038,0.000455
3914.69305,0.00011,0.0004,0.000255,0.00046,0.00031,0.000385
3912.63269,0.0002,0.0005,0.00035,0.0005,0.00039,0.000445
3910.57232,0.00033,0.00072,0.000525,0.00053,0.00047,0.0005
3908.51196,0.0003,0.00086,0.00058,0.00045,0.0004,0.000425
3906.45159,0.00022,0.00091,0.000565,0.00038,0.00028,0.00033
3904.39123,0.00025,0.00099,0.00062,0.00055,0.00027,0.00041
3902.33086,0.00049,0.00109,0.00079,0.00081,0.00033,0.00057
3900.2705,0.00065,0.0009,0.000775,0.0009,0.00042,0.00066
3898.21013,0.0006,0.0005,0.00055,0.00083,0.0005,0.000665
3896.14977,0.00043,0.00035,0.00039,0.00069,0.00053,0.00061
3894.0894,0.00028,0.00045,0.000365,0.00053,0.00046,0.000495
3892.02904,0.00025,0.00056,0.000405,0.0004,0.00032,0.00036
3889.96867,0.00035,0.00058,0.000465,0.00036,0.00034,0.00035
3887.90831,0.0005,0.00077,0.000635,0.00037,0.00049,0.00043
3885.84794,0.00061,0.00114,0.000875,0.00034,0.00056,0.00045
3883.78758,0.00056,0.00125,0.000905,0.00042,0.00053,0.000475
3881.72721,0.00048,0.00105,0.000765,0.00064,0.00053,0.000585
3879.66685,0.00033,0.00078,0.000555,0.00074,0.00051,0.000625
3877.60648,0.00013,0.0006,0.000365,0.0007,0.00047,0.000585
3875.54612,0.00005,0.00055,0.0003,0.00076,0.00053,0.000645
3873.48576,0.00006,0.00056,0.00031,0.00086,0.00067,0.000765
3871.42539,0.00021,0.0007,0.000455,0.00084,0.00078,0.00081
3869.36503,0.00048,0.00096,0.00072,0.00072,0.00068,0.0007
3867.30466,0.00063,0.00109,0.00086,0.0006,0.00045,0.000525
3865.2443,0.00053,0.00098,0.000755,0.00048,0.00035,0.000415
3863.18393,0.00031,0.00071,0.00051,0.0004,0.00041,0.000405
3861.12357,0.00023,0.00053,0.00038,0.00046,0.00052,0.00049
3859.0632,0.00027,0.00052,0.000395,0.00056,0.00059,0.000575
3857.00284,0.00038,0.00062,0.0005,0.00054,0.0006,0.00057
3854.94247,0.00044,0.00078,0.00061,0.00031,0.00047,0.00039
3852.88211,0.00028,0.00069,0.000485,0,0.00011,0.000055
3850.82174,0.00025,0.00047,0.00036,0.00014,0,0.00007
3848.76138,0.00034,0.0005,0.00042,0.00038,0.00013,0.000255
3846.70101,0.00034,0.00071,0.000525,0.00038,0.00019,0.000285
3844.64065,0.0003,0.00092,0.00061,0.0003,0.00014,0.00022
3842.58028,0.00025,0.00101,0.00063,0.00034,0.00016,0.00025
3840.51992,0.00026,0.00107,0.000665,0.0004,0.00024,0.00032
3838.45955,0.00034,0.00108,0.00071,0.00045,0.00033,0.00039
3836.39919,0.00035,0.00088,0.000615,0.00054,0.00037,0.000455
3834.33882,0.00036,0.00071,0.000535,0.00058,0.00034,0.00046
3832.27846,0.00041,0.00061,0.00051,0.00058,0.00044,0.00051
3830.2181,0.00025,0.00032,0.000285,0.00058,0.00056,0.00057
3828.15773,0,0,0,0.00049,0.00052,0.000505
3826.09737,0.00004,0.00003,0.000035,0.00035,0.00034,0.000345
3824.037,0.00028,0.00044,0.00036,0.00038,0.00023,0.000305
3821.97664,0.00042,0.00082,0.00062,0.00061,0.00036,0.000485
3819.91627,0.00039,0.00092,0.000655,0.00078,0.00058,0.00068
3817.85591,0.00036,0.00086,0.00061,0.00084,0.00069,0.000765
3815.79554,0.00042,0.00076,0.00059,0.00088,0.00071,0.000795
3813.73518,0.00052,0.00065,0.000585,0.00096,0.00067,0.000815
3811.67481,0.00064,0.00066,0.00065,0.00102,0.00065,0.000835
3809.61445,0.00074,0.00081,0.000775,0.00085,0.00066,0.000755
3807.55408,0.00057,0.00098,0.000775,0.00051,0.00065,0.00058
3805.49372,0.00035,0.00097,0.00066,0.00046,0.00071,0.000585
3803.43335,0.00043,0.00085,0.00064,0.00056,0.00065,0.000605
3801.37299,0.00066,0.00079,0.000725,0.00039,0.00026,0.000325
3799.31262,0.0008,0.00093,0.000865,0.00027,0.00002,0.000145
3797.25226,0.00078,0.00096,0.00087,0.00029,0.00009,0.00019
3795.19189,0.00068,0.00081,0.000745,0.00026,0.00011,0.000185
3793.13153,0.00056,0.00067,0.000615,0.00029,0.0001,0.000195
3791.07116,0.00039,0.00054,0.000465,0.00039,0.00011,0.00025
3789.0108,0.0003,0.00052,0.00041,0.00051,0.00008,0.000295
3786.95044,0.00027,0.00058,0.000425,0.00055,0.00007,0.00031
3784.89007,0.00023,0.00055,0.00039,0.00046,0.00013,0.000295
3782.82971,0.00032,0.00054,0.00043,0.00054,0.00035,0.000445
3780.76934,0.00045,0.00066,0.000555,0.0007,0.00055,0.000625
3778.70898,0.00042,0.00073,0.000575,0.00064,0.00051,0.000575
3776.64861,0.00033,0.00073,0.00053,0.00055,0.00038,0.000465
3774.58825,0.00029,0.00061,0.00045,0.00051,0.00035,0.00043
3772.52788,0.00026,0.00042,0.00034,0.00046,0.00036,0.00041
3770.46752,0.00035,0.00036,0.000355,0.00051,0.00032,0.000415
3768.40715,0.00059,0.00056,0.000575,0.00064,0.00033,0.000485
3766.34679,0.00075,0.00088,0.000815,0.00071,0.00046,0.000585
3764.28642,0.00066,0.00095,0.000805,0.00063,0.0005,0.000565
3762.22606,0.00044,0.00082,0.00063,0.00054,0.00042,0.00048
3760.16569,0.00036,0.00078,0.00057,0.00061,0.00036,0.000485
3758.10533,0.00048,0.00079,0.000635,0.00065,0.0004,0.000525
3756.04496,0.0006,0.00075,0.000675,0.00058,0.00054,0.00056
3753.9846,0.0007,0.00079,0.000745,0.00054,0.00061,0.000575
3751.92423,0.00066,0.00082,0.00074,0.00056,0.00051,0.000535
3749.86387,0.00039,0.00059,0.00049,0.00073,0.00048,0.000605
3747.8035,0.00027,0.00039,0.00033,0.00086,0.00052,0.00069
3745.74314,0.00022,0.00041,0.000315,0.00074,0.00037,0.000555
3743.68278,0.00005,0.0005,0.000275,0.00065,0.00013,0.00039
3741.62241,0,0.00052,0.00026,0.00075,0.00009,0.00042
3739.56205,0.0002,0.00066,0.00043,0.0007,0.0001,0.0004
3737.50168,0.00055,0.001,0.000775,0.00049,0.00013,0.00031
3735.44132,0.00071,0.00106,0.000885,0.00041,0.00029,0.00035
3733.38095,0.00061,0.00057,0.00059,0.00049,0.00039,0.00044
3731.32059,0.00057,0.0004,0.000485,0.00058,0.00033,0.000455
3729.26022,0.00048,0.00057,0.000525,0.00059,0.00029,0.00044
3727.19986,0.00034,0.00065,0.000495,0.00047,0.00022,0.000345
3725.13949,0.00043,0.00081,0.00062,0.00028,0.00015,0.000215
3723.07913,0.00058,0.00099,0.000785,0.00022,0.00013,0.000175
3721.01876,0.00053,0.00089,0.00071,0.00033,0.00008,0.000205
3718.9584,0.00044,0.00061,0.000525,0.00045,0.00007,0.00026
3716.89803,0.00038,0.00041,0.000395,0.00053,0.00019,0.00036
3714.83767,0.00025,0.00037,0.00031,0.00052,0.00036,0.00044
3712.7773,0.0001,0.00051,0.000305,0.00036,0.00041,0.000385
3710.71694,0.00014,0.00068,0.00041,0.0002,0.00026,0.00023
3708.65657,0.00023,0.00057,0.0004,0.00023,0.00015,0.00019
3706.59621,0.00013,0.00035,0.00024,0.00029,0.00024,0.000265
3704.53584,0.00005,0.0003,0.000175,0.00042,0.00051,0.000465
3702.47548,0.00006,0.00036,0.00021,0.00062,0.00076,0.00069
3700.41512,0.00014,0.00041,0.000275,0.00064,0.00079,0.000715
3698.35475,0.00025,0.00047,0.00036,0.00058,0.00076,0.00067
3696.29439,0.00028,0.00055,0.000415,0.00056,0.00077,0.000665
3694.23402,0.00033,0.0007,0.000515,0.00065,0.00089,0.00077
3692.17366,0.00054,0.00101,0.000775,0.00084,0.00108,0.00096
3690.11329,0.00075,0.00119,0.00097,0.00084,0.00096,0.0009
3688.05293,0.00049,0.00084,0.000665,0.00058,0.00045,0.000515
3685.99256,0.00012,0.00051,0.000315,0.00048,0.00023,0.000355
3683.9322,0.00021,0.00068,0.000445,0.00053,0.00035,0.00044
3681.87183,0.00058,0.00117,0.000875,0.0006,0.00047,0.000535
3679.81147,0.00091,0.0016,0.001255,0.00061,0.00055,0.00058
3677.7511,0.00112,0.00179,0.001455,0.00065,0.00064,0.000645
3675.69074,0.00106,0.00164,0.00135,0.00076,0.00067,0.000715
3673.63037,0.00077,0.00141,0.00109,0.00079,0.00072,0.000755
3671.57001,0.00074,0.00159,0.001165,0.00076,0.00084,0.0008
3669.50964,0.00086,0.00173,0.001295,0.00081,0.00094,0.000875
3667.44928,0.00081,0.00145,0.00113,0.00088,0.00098,0.00093
3665.38891,0.0007,0.00121,0.000955,0.0009,0.00093,0.000915
3663.32855,0.00064,0.00116,0.0009,0.00106,0.00094,0.001
3661.26818,0.00068,0.0012,0.00094,0.00125,0.00112,0.001185
3659.20782,0.00085,0.00129,0.00107,0.00125,0.00127,0.00126
3657.14746,0.00105,0.00136,0.001205,0.00123,0.0013,0.001265
3655.08709,0.00118,0.00149,0.001335,0.00121,0.00125,0.00123
3653.02673,0.00131,0.0018,0.001555,0.00118,0.00128,0.00123
3650.96636,0.00146,0.00225,0.001855,0.00121,0.00148,0.001345
3648.906,0.00144,0.00259,0.002015,0.00108,0.00164,0.00136
3646.84563,0.00126,0.00235,0.001805,0.00096,0.0015,0.00123
3644.78527,0.0012,0.00186,0.00153,0.00097,0.00131,0.00114
3642.7249,0.00109,0.00153,0.00131,0.00104,0.00133,0.001185
3640.66454,0.00089,0.00141,0.00115,0.00124,0.00158,0.00141
3638.60417,0.00094,0.00164,0.00129,0.0014,0.00178,0.00159
3636.54381,0.00125,0.00215,0.0017,0.00146,0.00179,0.001625
3634.48344,0.00137,0.00246,0.001915,0.00154,0.00176,0.00165
3632.42308,0.00129,0.00245,0.00187,0.00161,0.0018,0.001705
3630.36271,0.00143,0.00259,0.00201,0.00171,0.0019,0.001805
3628.30235,0.00177,0.00284,0.002305,0.00192,0.00192,0.00192
3626.24198,0.0019,0.00269,0.002295,0.00188,0.00189,0.001885
3624.18162,0.00184,0.00251,0.002175,0.00166,0.00193,0.001795
3622.12125,0.00173,0.00254,0.002135,0.00165,0.0021,0.001875
3620.06089,0.00168,0.00274,0.00221,0.00196,0.00248,0.00222
3618.00052,0.0019,0.00298,0.00244,0.00227,0.00279,0.00253
3615.94016,0.00224,0.00323,0.002735,0.00236,0.00285,0.002605
3613.8798,0.00243,0.0034,0.002915,0.00232,0.00279,0.002555
3611.81943,0.00238,0.00338,0.00288,0.00221,0.00271,0.00246
3609.75907,0.00232,0.00335,0.002835,0.00222,0.00274,0.00248
3607.6987,0.00232,0.00339,0.002855,0.00234,0.00276,0.00255
3605.63834,0.00235,0.0034,0.002875,0.00238,0.00276,0.00257
3603.57797,0.00247,0.00346,0.002965,0.00247,0.00288,0.002675
3601.51761,0.00255,0.00358,0.003065,0.00264,0.00305,0.002845
3599.45724,0.00251,0.0036,0.003055,0.00274,0.00323,0.002985
3597.39688,0.0024,0.00359,0.002995,0.00288,0.00349,0.003185
3595.33651,0.00237,0.00376,0.003065,0.00311,0.00363,0.00337
3593.27615,0.00245,0.00397,0.00321,0.00328,0.00367,0.003475
3591.21578,0.00261,0.00415,0.00338,0.00338,0.00379,0.003585
3589.15542,0.00294,0.0045,0.00372,0.00336,0.00387,0.003615
3587.09505,0.00322,0.00477,0.003995,0.00323,0.00375,0.00349
3585.03469,0.00321,0.00472,0.003965,0.00335,0.00374,0.003545
3582.97432,0.00323,0.00471,0.00397,0.00363,0.00395,0.00379
3580.91396,0.00346,0.00487,0.004165,0.00378,0.00417,0.003975
3578.85359,0.00375,0.00507,0.00441,0.00381,0.00432,0.004065
3576.79323,0.00386,0.0052,0.00453,0.00376,0.00434,0.00405
3574.73286,0.00374,0.00525,0.004495,0.00374,0.00438,0.00406
3572.6725,0.00364,0.00531,0.004475,0.00391,0.00466,0.004285
3570.61214,0.0038,0.0056,0.0047,0.00414,0.00506,0.0046
3568.55177,0.00419,0.00608,0.005135,0.00435,0.00531,0.00483
3566.49141,0.00455,0.00634,0.005445,0.00453,0.00526,0.004895
3564.43104,0.00475,0.0063,0.005525,0.00456,0.00509,0.004825
3562.37068,0.00488,0.00641,0.005645,0.00455,0.00522,0.004885
3560.31031,0.00483,0.00659,0.00571,0.0047,0.00558,0.00514
3558.24995,0.00467,0.00654,0.005605,0.00486,0.00576,0.00531
3556.18958,0.00464,0.00647,0.005555,0.00501,0.00583,0.00542
3554.12922,0.00481,0.00673,0.00577,0.0052,0.00603,0.005615
3552.06885,0.00516,0.00711,0.006135,0.00525,0.00617,0.00571
3550.00849,0.0054,0.00729,0.006345,0.00526,0.0062,0.00573
3547.94812,0.0055,0.00738,0.00644,0.00542,0.00638,0.0059
3545.88776,0.00573,0.00765,0.00669,0.00567,0.00666,0.006165
3543.82739,0.00589,0.00798,0.006935,0.00601,0.00693,0.00647
3541.76703,0.00585,0.0082,0.007025,0.00623,0.00717,0.0067
3539.70666,0.00593,0.00841,0.00717,0.00633,0.00736,0.006845
3537.6463,0.00619,0.00863,0.00741,0.00651,0.00766,0.007085
3535.58593,0.00635,0.00876,0.007555,0.00676,0.00793,0.007345
3533.52557,0.00641,0.0089,0.007655,0.00697,0.00794,0.007455
3531.4652,0.00663,0.00918,0.007905,0.00708,0.00788,0.00748
3529.40484,0.00692,0.00953,0.008225,0.00717,0.00813,0.00765
3527.34448,0.00704,0.00972,0.00838,0.00737,0.00855,0.00796
3525.28411,0.00708,0.00981,0.008445,0.0076,0.00872,0.00816
3523.22375,0.00725,0.00996,0.008605,0.0077,0.00872,0.00821
3521.16338,0.00745,0.01012,0.008785,0.00775,0.0088,0.008275
3519.10302,0.00754,0.01026,0.0089,0.0079,0.009,0.00845
3517.04265,0.00759,0.01043,0.00901,0.00809,0.00921,0.00865
3514.98229,0.0077,0.0106,0.00915,0.00827,0.00934,0.008805
3512.92192,0.00784,0.01081,0.009325,0.00851,0.00946,0.008985
3510.86156,0.00802,0.01113,0.009575,0.0087,0.00962,0.00916
3508.80119,0.00825,0.01132,0.009785,0.00874,0.00976,0.00925
3506.74083,0.00837,0.01132,0.009845,0.00876,0.00994,0.00935
3504.68046,0.00833,0.0114,0.009865,0.00887,0.01019,0.00953
3502.6201,0.00829,0.01165,0.00997,0.00904,0.01033,0.009685
3500.55973,0.00845,0.01193,0.01019,0.00918,0.01039,0.009785
3498.49937,0.0087,0.0121,0.0104,0.00923,0.01047,0.00985
3496.439,0.0089,0.01213,0.010515,0.00928,0.01057,0.009925
3494.37864,0.00909,0.01219,0.01064,0.0093,0.01064,0.00997
3492.31827,0.00916,0.01228,0.01072,0.00923,0.01061,0.00992
3490.25791,0.0091,0.01236,0.01073,0.00919,0.01054,0.009865
3488.19754,0.00903,0.01241,0.01072,0.00926,0.01071,0.009985
3486.13718,0.00899,0.01247,0.01073,0.00938,0.01104,0.01021
3484.07682,0.00911,0.01261,0.01086,0.00949,0.01118,0.010335
3482.01645,0.00926,0.01279,0.011025,0.00969,0.01125,0.01047
3479.95609,0.00918,0.01283,0.011005,0.00994,0.01135,0.010645
3477.89572,0.00911,0.01275,0.01093,0.01005,0.0114,0.010725
3475.83536,0.00927,0.01274,0.011005,0.01006,0.0115,0.01078
3473.77499,0.00942,0.01295,0.011185,0.01021,0.01178,0.010995
3471.71463,0.00936,0.01321,0.011285,0.01036,0.01191,0.011135
3469.65426,0.00934,0.01335,0.011345,0.0103,0.01181,0.011055
3467.5939,0.00953,0.01346,0.011495,0.01026,0.01182,0.01104
3465.53353,0.0096,0.01355,0.011575,0.01036,0.012,0.01118
3463.47317,0.00959,0.01367,0.01163,0.01049,0.0122,0.011345
3461.4128,0.00977,0.01388,0.011825,0.01061,0.01228,0.011445
3459.35244,0.00997,0.01404,0.012005,0.01076,0.01231,0.011535
3457.29207,0.01001,0.01408,0.012045,0.01078,0.01234,0.01156
3455.23171,0.00999,0.01413,0.01206,0.01071,0.01227,0.01149
3453.17134,0.01005,0.01439,0.01222,0.01079,0.01217,0.01148
3451.11098,0.01022,0.01476,0.01249,0.01103,0.01225,0.01164
3449.05061,0.0104,0.01501,0.012705,0.01125,0.01248,0.011865
3446.99025,0.01043,0.01505,0.01274,0.01134,0.01268,0.01201
3444.92988,0.01038,0.015,0.01269,0.01128,0.01283,0.012055
3442.86952,0.01041,0.01493,0.01267,0.01116,0.01291,0.012035
3440.80916,0.01058,0.01494,0.01276,0.01115,0.01292,0.012035
3438.74879,0.01075,0.01508,0.012915,0.01121,0.01301,0.01211
3436.68843,0.01093,0.01535,0.01314,0.01129,0.01315,0.01222
3434.62806,0.01114,0.01575,0.013445,0.01143,0.01327,0.01235
3432.5677,0.01124,0.016,0.01362,0.01155,0.01337,0.01246
3430.50733,0.01121,0.01597,0.01359,0.01155,0.01332,0.012435
3428.44697,0.01123,0.01592,0.013575,0.01155,0.0132,0.012375
3426.3866,0.01132,0.01607,0.013695,0.0117,0.01325,0.012475
3424.32624,0.01137,0.01628,0.013825,0.01188,0.01341,0.012645
3422.26587,0.01137,0.01643,0.0139,0.01201,0.01357,0.01279
3420.20551,0.01149,0.01653,0.01401,0.01211,0.01362,0.012865
3418.14514,0.01165,0.01661,0.01413,0.01204,0.01345,0.012745
3416.08478,0.01184,0.01668,0.01426,0.0119,0.01333,0.012615
3414.02441,0.01221,0.01685,0.01453,0.01194,0.01358,0.01276
3411.96405,0.0124,0.01713,0.014765,0.01209,0.014,0.013045
3409.90368,0.01233,0.01744,0.014885,0.01226,0.01431,0.013285
3407.84332,0.01244,0.01777,0.015105,0.01245,0.01438,0.013415
3405.78295,0.01277,0.01802,0.015395,0.01263,0.01429,0.01346
3403.72259,0.01302,0.01816,0.01559,0.01273,0.01426,0.013495
3401.66222,0.01322,0.01831,0.015765,0.0128,0.01433,0.013565
3399.60186,0.01355,0.01858,0.016065,0.01293,0.01449,0.01371
3397.54149,0.01386,0.01887,0.016365,0.01305,0.01476,0.013905
3395.48113,0.01407,0.01912,0.016595,0.01318,0.01505,0.014115
3393.42077,0.01442,0.01941,0.016915,0.01338,0.01527,0.014325
3391.3604,0.01483,0.01972,0.017275,0.01358,0.01545,0.014515
3389.30004,0.0151,0.02002,0.01756,0.01372,0.01551,0.014615
3387.23967,0.01533,0.02031,0.01782,0.0138,0.01542,0.01461
3385.17931,0.01576,0.0206,0.01818,0.01398,0.01548,0.01473
3383.11894,0.01635,0.02096,0.018655,0.01437,0.0158,0.015085
3381.05858,0.01684,0.02133,0.019085,0.01479,0.0162,0.015495
3378.99821,0.01717,0.02169,0.01943,0.01503,0.01653,0.01578
3376.93785,0.01755,0.02209,0.01982,0.0152,0.01679,0.015995
3374.87748,0.01809,0.02258,0.020335,0.01538,0.01697,0.016175
3372.81712,0.01869,0.02308,0.020885,0.01561,0.01709,0.01635
3370.75675,0.01934,0.02362,0.02148,0.01598,0.01733,0.016655
3368.69639,0.02013,0.02431,0.02222,0.01649,0.01777,0.01713
3366.63602,0.02078,0.02502,0.0229,0.017,0.01827,0.017635
3364.57566,0.02126,0.02567,0.023465,0.01746,0.01876,0.01811
3362.51529,0.02184,0.02634,0.02409,0.0179,0.01925,0.018575
3360.45493,0.02256,0.02706,0.02481,0.01837,0.01975,0.01906
3358.39456,0.02341,0.02791,0.02566,0.01894,0.02021,0.019575
3356.3342,0.0244,0.02886,0.02663,0.01953,0.02062,0.020075
3354.27383,0.02547,0.0298,0.027635,0.02017,0.02119,0.02068
3352.21347,0.0267,0.03084,0.02877,0.02098,0.02205,0.021515
3350.15311,0.02808,0.03204,0.03006,0.02196,0.02298,0.02247
3348.09274,0.02929,0.03312,0.031205,0.02296,0.02378,0.02337
3346.03238,0.03039,0.03429,0.03234,0.024,0.02456,0.02428
3343.97201,0.03178,0.03579,0.033785,0.0252,0.02559,0.025395
3341.91165,0.03354,0.03747,0.035505,0.02651,0.02685,0.02668
3339.85128,0.03554,0.03929,0.037415,0.02777,0.02809,0.02793
3337.79092,0.0376,0.04135,0.039475,0.02917,0.02938,0.029275
3335.73055,0.03971,0.04342,0.041565,0.03092,0.03093,0.030925
3333.67019,0.04201,0.04542,0.043715,0.03281,0.03268,0.032745
3331.60982,0.04464,0.04776,0.0462,0.03475,0.03448,0.034615
3329.54946,0.04764,0.05064,0.04914,0.03696,0.03644,0.0367
3327.48909,0.051,0.05384,0.05242,0.03968,0.03885,0.039265
3325.42873,0.05473,0.05734,0.056035,0.04292,0.04175,0.042335
3323.36836,0.05872,0.06109,0.059905,0.04658,0.04499,0.045785
3321.308,0.06298,0.06499,0.063985,0.05072,0.04868,0.0497
3319.24763,0.06768,0.06927,0.068475,0.05536,0.05288,0.05412
3317.18727,0.07282,0.07413,0.073475,0.06062,0.05756,0.05909
3315.1269,0.07839,0.07942,0.078905,0.06674,0.06284,0.06479
3313.06654,0.08437,0.08502,0.084695,0.07369,0.06873,0.07121
3311.00617,0.09065,0.09087,0.09076,0.08112,0.07513,0.078125
3308.94581,0.09708,0.09686,0.09697,0.0887,0.08185,0.085275
3306.88545,0.10339,0.10286,0.103125,0.09592,0.08842,0.09217
3304.82508,0.10928,0.10876,0.10902,0.10195,0.094,0.097975
3302.76472,0.11445,0.11407,0.11426,0.10592,0.09788,0.1019
3300.70435,0.11858,0.11825,0.118415,0.10758,0.09991,0.103745
3298.64399,0.1215,0.12126,0.12138,0.10728,0.10016,0.10372
3296.58362,0.12307,0.12312,0.123095,0.10514,0.09855,0.101845
3294.52326,0.12328,0.12373,0.123505,0.10128,0.09539,0.098335
3292.46289,0.12238,0.12331,0.122845,0.0963,0.09144,0.09387
3290.40253,0.12039,0.12206,0.121225,0.09083,0.08708,0.088955
3288.34216,0.11744,0.11982,0.11863,0.08533,0.08246,0.083895
3286.2818,0.114,0.11688,0.11544,0.08023,0.078,0.079115
3284.22143,0.11026,0.11369,0.111975,0.07584,0.07398,0.07491
3282.16107,0.10627,0.11032,0.108295,0.07195,0.07038,0.071165
3280.1007,0.10223,0.10668,0.104455,0.0683,0.06718,0.06774
3278.04034,0.09811,0.10287,0.10049,0.06508,0.06435,0.064715
3275.97997,0.09397,0.09911,0.09654,0.06244,0.06187,0.062155
3273.91961,0.08991,0.09544,0.092675,0.06016,0.05979,0.059975
3271.85924,0.08584,0.09169,0.088765,0.05799,0.05799,0.05799
3269.79888,0.08164,0.08762,0.08463,0.05579,0.05613,0.05596
3267.73851,0.07735,0.08339,0.08037,0.05361,0.0541,0.053855
3265.67815,0.07321,0.07954,0.076375,0.05148,0.05215,0.051815
3263.61779,0.06938,0.07608,0.07273,0.04943,0.05036,0.049895
3261.55742,0.06586,0.07268,0.06927,0.04754,0.04864,0.04809
3259.49706,0.0627,0.06944,0.06607,0.04593,0.04702,0.046475
3257.43669,0.05993,0.06641,0.06317,0.0445,0.04554,0.04502
3255.37633,0.05732,0.06357,0.060445,0.04304,0.04411,0.043575
3253.31596,0.05461,0.06103,0.05782,0.04149,0.04265,0.04207
3251.2556,0.05208,0.05877,0.055425,0.03994,0.04119,0.040565
3249.19523,0.04994,0.05662,0.05328,0.03841,0.03987,0.03914
3247.13487,0.04793,0.05448,0.051205,0.03689,0.0386,0.037745
3245.0745,0.04595,0.05243,0.04919,0.03552,0.03724,0.03638
3243.01414,0.0441,0.05052,0.04731,0.03432,0.03594,0.03513
3240.95377,0.04235,0.04873,0.04554,0.03327,0.03494,0.034105
3238.89341,0.04079,0.04712,0.043955,0.03232,0.03405,0.033185
3236.83304,0.03952,0.04567,0.042595,0.03138,0.03299,0.032185
3234.77268,0.03837,0.04433,0.04135,0.0305,0.03191,0.031205
3232.71231,0.03723,0.04314,0.040185,0.02968,0.03105,0.030365
3230.65195,0.03607,0.04199,0.03903,0.02887,0.0303,0.029585
3228.59158,0.03503,0.04098,0.038005,0.02805,0.02947,0.02876
3226.53122,0.03427,0.0403,0.037285,0.0273,0.02868,0.02799
3224.47085,0.03377,0.03977,0.03677,0.02674,0.02812,0.02743
3222.41049,0.03341,0.03924,0.036325,0.02626,0.02766,0.02696
3220.35013,0.03307,0.03882,0.035945,0.02571,0.02715,0.02643
3218.28976,0.03269,0.03841,0.03555,0.0252,0.02662,0.02591
3216.2294,0.0323,0.03794,0.03512,0.02485,0.02618,0.025515
3214.16903,0.03197,0.03748,0.034725,0.02467,0.0259,0.025285
3212.10867,0.03163,0.03703,0.03433,0.02454,0.02568,0.02511
3210.0483,0.03123,0.03663,0.03393,0.02438,0.02543,0.024905
3207.98794,0.03077,0.03621,0.03349,0.02424,0.02518,0.02471
3205.92757,0.03027,0.03569,0.03298,0.02406,0.02496,0.02451
3203.86721,0.02982,0.03514,0.03248,0.02382,0.02469,0.024255
3201.80684,0.02947,0.03456,0.032015,0.02354,0.02433,0.023935
3199.74648,0.02902,0.0339,0.03146,0.02324,0.02403,0.023635
3197.68611,0.02837,0.03322,0.030795,0.02298,0.02387,0.023425
3195.62575,0.0276,0.03258,0.03009,0.0227,0.0237,0.0232
3193.56538,0.02673,0.03187,0.0293,0.02233,0.02345,0.02289
3191.50502,0.02587,0.0311,0.028485,0.02197,0.02316,0.022565
3189.44465,0.0251,0.03037,0.027735,0.02166,0.02269,0.022175
3187.38429,0.0244,0.02966,0.02703,0.02129,0.02219,0.02174
3185.32392,0.02377,0.0289,0.026335,0.02087,0.02187,0.02137
3183.26356,0.0232,0.02808,0.02564,0.02042,0.02158,0.021
3181.20319,0.02256,0.0273,0.02493,0.02,0.02113,0.020565
3179.14283,0.02185,0.0266,0.024225,0.0197,0.02064,0.02017
3177.08247,0.02111,0.02581,0.02346,0.01938,0.02011,0.019745
3175.0221,0.02039,0.02499,0.02269,0.01884,0.01952,0.01918
3172.96174,0.01983,0.02442,0.022125,0.01821,0.01897,0.01859
3170.90137,0.01947,0.0241,0.021785,0.01772,0.01859,0.018155
3168.84101,0.01915,0.02378,0.021465,0.01738,0.01838,0.01788
3166.78064,0.01875,0.02331,0.02103,0.01703,0.01815,0.01759
3164.72028,0.01836,0.02282,0.02059,0.0166,0.01773,0.017165
3162.65991,0.01804,0.0224,0.02022,0.01617,0.01723,0.0167
3160.59955,0.01775,0.02204,0.019895,0.01583,0.01687,0.01635
3158.53918,0.01742,0.02167,0.019545,0.01551,0.01657,0.01604
3156.47882,0.01709,0.02133,0.01921,0.01525,0.01624,0.015745
3154.41845,0.01682,0.02105,0.018935,0.01521,0.01599,0.0156
3152.35809,0.01667,0.02088,0.018775,0.01512,0.01576,0.01544
3150.29772,0.01662,0.02076,0.01869,0.01487,0.01549,0.01518
3148.23736,0.0166,0.02053,0.018565,0.01468,0.01538,0.01503
3146.17699,0.0165,0.02033,0.018415,0.01464,0.01536,0.015
3144.11663,0.0164,0.02039,0.018395,0.01468,0.01523,0.014955
3142.05626,0.01638,0.02053,0.018455,0.01471,0.01513,0.01492
3139.9959,0.01644,0.02057,0.018505,0.01457,0.01518,0.014875
3137.93553,0.01656,0.02055,0.018555,0.01441,0.01522,0.014815
3135.87517,0.01665,0.02052,0.018585,0.01436,0.01508,0.01472
3133.81481,0.01671,0.02052,0.018615,0.01433,0.01484,0.014585
3131.75444,0.01681,0.02055,0.01868,0.01436,0.01481,0.014585
3129.69408,0.01696,0.02062,0.01879,0.01453,0.01511,0.01482
3127.63371,0.01715,0.0208,0.018975,0.01472,0.01545,0.015085
3125.57335,0.01744,0.02114,0.01929,0.01485,0.01564,0.015245
3123.51298,0.01791,0.02162,0.019765,0.01508,0.01581,0.015445
3121.45262,0.01857,0.02216,0.020365,0.01544,0.01604,0.01574
3119.39225,0.01927,0.02275,0.02101,0.01576,0.01626,0.01601
3117.33189,0.01982,0.02333,0.021575,0.016,0.01651,0.016255
3115.27152,0.02023,0.02374,0.021985,0.01622,0.01686,0.01654
3113.21116,0.02074,0.0241,0.02242,0.01645,0.01713,0.01679
3111.15079,0.02147,0.02465,0.02306,0.01678,0.01734,0.01706
3109.09043,0.02228,0.02541,0.023845,0.01716,0.01765,0.017405
3107.03006,0.02312,0.02627,0.024695,0.01748,0.01807,0.017775
3104.9697,0.02396,0.02717,0.025565,0.01792,0.01857,0.018245
3102.90933,0.02486,0.0281,0.02648,0.01855,0.01903,0.01879
3100.84897,0.02599,0.02918,0.027585,0.01912,0.01939,0.019255
3098.7886,0.0273,0.03047,0.028885,0.01953,0.01979,0.01966
3096.72824,0.02859,0.03176,0.030175,0.01997,0.02029,0.02013
3094.66787,0.02985,0.03291,0.03138,0.02057,0.02084,0.020705
3092.60751,0.03105,0.03395,0.0325,0.02116,0.02142,0.02129
3090.54715,0.03201,0.03487,0.03344,0.02155,0.02199,0.02177
3088.48678,0.03278,0.03567,0.034225,0.0219,0.02243,0.022165
3086.42642,0.0333,0.03618,0.03474,0.02233,0.02279,0.02256
3084.36605,0.03341,0.03619,0.0348,0.02269,0.02309,0.02289
3082.30569,0.03322,0.03587,0.034545,0.02297,0.02327,0.02312
3080.24532,0.03287,0.03537,0.03412,0.02334,0.02347,0.023405
3078.18496,0.03221,0.03469,0.03345,0.02367,0.02376,0.023715
3076.12459,0.0312,0.0338,0.0325,0.02374,0.02405,0.023895
3074.06423,0.03008,0.03268,0.03138,0.02371,0.02417,0.02394
3072.00386,0.02898,0.03149,0.030235,0.0237,0.02406,0.02388
3069.9435,0.02781,0.03042,0.029115,0.02374,0.02391,0.023825
3067.88313,0.02666,0.02945,0.028055,0.02384,0.02396,0.0239
3065.82277,0.02565,0.02841,0.02703,0.02389,0.02396,0.023925
3063.7624,0.0247,0.02729,0.025995,0.02368,0.02365,0.023665
3061.70204,0.02374,0.0262,0.02497,0.02328,0.02316,0.02322
3059.64167,0.02279,0.02517,0.02398,0.02303,0.02279,0.02291
3057.58131,0.02184,0.0242,0.02302,0.0227,0.0224,0.02255
3055.52094,0.02088,0.02333,0.022105,0.02195,0.02175,0.02185
3053.46058,0.01998,0.02247,0.021225,0.02109,0.02098,0.021035
3051.40021,0.0192,0.02159,0.020395,0.02037,0.02028,0.020325
3049.33985,0.01845,0.02078,0.019615,0.01961,0.01957,0.01959
3047.27949,0.01777,0.02018,0.018975,0.01877,0.01883,0.0188
3045.21912,0.01723,0.01984,0.018535,0.01802,0.01817,0.018095
3043.15876,0.01681,0.01959,0.0182,0.01742,0.01754,0.01748
3041.09839,0.01643,0.01915,0.01779,0.01685,0.01691,0.01688
3039.03803,0.01605,0.01857,0.01731,0.01634,0.01643,0.016385
3036.97766,0.01572,0.01806,0.01689,0.01593,0.0161,0.016015
3034.9173,0.01545,0.01767,0.01656,0.01548,0.01575,0.015615
3032.85693,0.01521,0.01736,0.016285,0.015,0.01531,0.015155
3030.79657,0.01489,0.01693,0.01591,0.01464,0.01494,0.01479
3028.7362,0.01447,0.01636,0.015415,0.01432,0.01463,0.014475
3026.67584,0.01416,0.01603,0.015095,0.01408,0.01433,0.014205
3024.61547,0.01399,0.01604,0.015015,0.01394,0.01412,0.01403
3022.55511,0.01371,0.01601,0.01486,0.01371,0.0139,0.013805
3020.49474,0.01342,0.0158,0.01461,0.01347,0.01363,0.01355
3018.43438,0.01328,0.01551,0.014395,0.01336,0.01339,0.013375
3016.37401,0.01327,0.01533,0.0143,0.01324,0.0132,0.01322
3014.31365,0.01343,0.01543,0.01443,0.01317,0.01319,0.01318
3012.25328,0.01359,0.0156,0.014595,0.01323,0.01332,0.013275
3010.19292,0.01348,0.01554,0.01451,0.01327,0.01334,0.013305
3008.13255,0.01335,0.01536,0.014355,0.01312,0.01314,0.01313
3006.07219,0.01346,0.01535,0.014405,0.01294,0.01285,0.012895
3004.01183,0.01361,0.01545,0.01453,0.01283,0.01268,0.012755
3001.95146,0.01365,0.01562,0.014635,0.01278,0.01271,0.012745
2999.8911,0.01375,0.01586,0.014805,0.01291,0.01288,0.012895
2997.83073,0.01409,0.01611,0.0151,0.01318,0.01308,0.01313
2995.77037,0.01467,0.01646,0.015565,0.01332,0.01314,0.01323
2993.71,0.0153,0.01692,0.01611,0.0133,0.01314,0.01322
2991.64964,0.01582,0.01735,0.016585,0.01336,0.01333,0.013345
2989.58927,0.01623,0.01767,0.01695,0.01359,0.01361,0.0136
2987.52891,0.01666,0.01798,0.01732,0.01394,0.0139,0.01392
2985.46854,0.0173,0.01859,0.017945,0.01447,0.01432,0.014395
2983.40818,0.01805,0.0194,0.018725,0.01519,0.015,0.015095
2981.34781,0.0187,0.02009,0.019395,0.01605,0.01584,0.015945
2979.28745,0.0193,0.0206,0.01995,0.01703,0.01669,0.01686
2977.22708,0.01979,0.02097,0.02038,0.01816,0.01767,0.017915
2975.16672,0.02023,0.02132,0.020775,0.01942,0.0189,0.01916
2973.10635,0.0209,0.02182,0.02136,0.02079,0.02028,0.020535
2971.04599,0.02196,0.02271,0.022335,0.0224,0.0217,0.02205
2968.98562,0.02341,0.02423,0.02382,0.02438,0.02329,0.023835
2966.92526,0.02507,0.02607,0.02557,0.02638,0.02517,0.025775
2964.86489,0.02691,0.02803,0.02747,0.02833,0.02731,0.02782
2962.80453,0.02901,0.03013,0.02957,0.03036,0.02952,0.02994
2960.74417,0.03147,0.03238,0.031925,0.03256,0.03174,0.03215
2958.6838,0.03438,0.03499,0.034685,0.03517,0.0342,0.034685
2956.62344,0.03766,0.03803,0.037845,0.03837,0.03703,0.0377
2954.56307,0.04127,0.04146,0.041365,0.04228,0.04052,0.0414
2952.50271,0.04524,0.04532,0.04528,0.04699,0.04488,0.045935
2950.44234,0.04959,0.04966,0.049625,0.05234,0.04999,0.051165
2948.38198,0.05441,0.05435,0.05438,0.0582,0.05567,0.056935
2946.32161,0.05959,0.05923,0.05941,0.0647,0.06181,0.063255
2944.26125,0.06487,0.06424,0.064555,0.07167,0.06821,0.06994
2942.20088,0.07002,0.06922,0.06962,0.07847,0.0744,0.076435
2940.14052,0.075,0.074,0.0745,0.08409,0.07954,0.081815
2938.08015,0.07983,0.07858,0.079205,0.08781,0.08303,0.08542
2936.01979,0.08459,0.08303,0.08381,0.08983,0.08518,0.087505
2933.95942,0.08948,0.08766,0.08857,0.09119,0.08679,0.08899
2931.89906,0.09482,0.09286,0.09384,0.09287,0.08843,0.09065
2929.83869,0.10076,0.0987,0.09973,0.09518,0.09048,0.09283
2927.77833,0.10699,0.10487,0.10593,0.09799,0.09304,0.095515
2925.71796,0.113,0.1108,0.1119,0.10085,0.0956,0.098225
2923.6576,0.11807,0.11573,0.1169,0.10283,0.0973,0.100065
2921.59723,0.1211,0.11894,0.12002,0.10336,0.09794,0.10065
2919.53687,0.12112,0.11961,0.120365,0.10295,0.09805,0.1005
2917.47651,0.11777,0.11697,0.11737,0.10188,0.09753,0.099705
2915.41614,0.11153,0.11138,0.111455,0.09893,0.09517,0.09705
2913.35578,0.1037,0.10418,0.10394,0.09304,0.09014,0.09159
2911.29541,0.09534,0.09644,0.09589,0.08528,0.08325,0.084265
2909.23505,0.08687,0.08846,0.087665,0.07753,0.07616,0.076845
2907.17468,0.07868,0.08056,0.07962,0.07082,0.06982,0.07032
2905.11432,0.07137,0.07343,0.0724,0.06513,0.0643,0.064715
2903.05395,0.06527,0.06752,0.066395,0.06017,0.05948,0.059825
2900.99359,0.06021,0.06265,0.06143,0.05578,0.0553,0.05554
2898.93322,0.05588,0.05841,0.057145,0.05196,0.05163,0.051795
2896.87286,0.05222,0.05478,0.0535,0.04873,0.04847,0.0486
2894.81249,0.04919,0.0518,0.050495,0.04609,0.04592,0.046005
2892.75213,0.04668,0.04939,0.048035,0.04405,0.04396,0.044005
2890.69176,0.04461,0.04742,0.046015,0.04256,0.04248,0.04252
2888.6314,0.04293,0.04579,0.04436,0.04166,0.04147,0.041565
2886.57103,0.04153,0.04437,0.04295,0.04149,0.04112,0.041305
2884.51067,0.04018,0.04294,0.04156,0.0421,0.04159,0.041845
2882.4503,0.03885,0.04148,0.040165,0.04327,0.04266,0.042965
2880.38994,0.03776,0.0403,0.03903,0.04476,0.04395,0.044355
2878.32957,0.03714,0.03964,0.03839,0.0463,0.04526,0.04578
2876.26921,0.03698,0.03947,0.038225,0.04764,0.04645,0.047045
2874.20885,0.03739,0.03974,0.038565,0.04877,0.04748,0.048125
2872.14848,0.03863,0.04078,0.039705,0.05003,0.0487,0.049365
2870.08812,0.04075,0.04276,0.041755,0.0517,0.05041,0.051055
2868.02775,0.04366,0.04548,0.04457,0.05369,0.05236,0.053025
2865.96739,0.04729,0.04884,0.048065,0.05561,0.05433,0.05497
2863.90702,0.0516,0.05288,0.05224,0.05742,0.05626,0.05684
2861.84666,0.05668,0.05769,0.057185,0.05941,0.05823,0.05882
2859.78629,0.06244,0.06322,0.06283,0.06182,0.06048,0.06115
2857.72593,0.06872,0.06931,0.069015,0.06483,0.06328,0.064055
2855.66556,0.07525,0.07567,0.07546,0.06853,0.06667,0.0676
2853.6052,0.08149,0.08195,0.08172,0.072,0.06994,0.07097
2851.54483,0.08621,0.0869,0.086555,0.07321,0.07126,0.072235
2849.48447,0.08634,0.08757,0.086955,0.07014,0.06869,0.069415
2847.4241,0.07915,0.08125,0.0802,0.06273,0.06201,0.06237
2845.36374,0.06627,0.06909,0.06768,0.05318,0.05311,0.053145
2843.30337,0.05249,0.05564,0.054065,0.04394,0.04436,0.04415
2841.24301,0.04135,0.04452,0.042935,0.03631,0.03704,0.036675
2839.18264,0.03367,0.03673,0.0352,0.03065,0.03141,0.03103
2837.12228,0.02874,0.0317,0.03022,0.02676,0.02737,0.027065
2835.06191,0.02553,0.02844,0.026985,0.02416,0.02458,0.02437
2833.00155,0.02324,0.02616,0.0247,0.02234,0.02257,0.022455
2830.94119,0.02156,0.02446,0.02301,0.02094,0.02112,0.02103
2828.88082,0.02042,0.02323,0.021825,0.0199,0.02019,0.020045
2826.82046,0.01964,0.02237,0.021005,0.01922,0.01957,0.019395
2824.76009,0.01899,0.02165,0.02032,0.0187,0.01899,0.018845
2822.69973,0.0184,0.02097,0.019685,0.01819,0.01837,0.01828
2820.63936,0.01793,0.0204,0.019165,0.01764,0.01772,0.01768
2818.579,0.01743,0.01992,0.018675,0.01709,0.0171,0.017095
2816.51863,0.01679,0.01948,0.018135,0.01657,0.01652,0.016545
2814.45827,0.01625,0.01906,0.017655,0.01602,0.01598,0.016
2812.3979,0.01594,0.01862,0.01728,0.01553,0.01551,0.01552
2810.33754,0.01572,0.01818,0.01695,0.01514,0.01509,0.015115
2808.27717,0.01543,0.01779,0.01661,0.01477,0.01469,0.01473
2806.21681,0.01501,0.01739,0.0162,0.0144,0.01433,0.014365
2804.15644,0.01458,0.017,0.01579,0.01405,0.014,0.014025
2802.09608,0.01432,0.01676,0.01554,0.01376,0.01369,0.013725
2800.03571,0.0142,0.01662,0.01541,0.01352,0.01342,0.01347
2797.97535,0.01403,0.01636,0.015195,0.0133,0.01316,0.01323
2795.91498,0.01376,0.016,0.01488,0.0131,0.01292,0.01301
2793.85462,0.01342,0.01572,0.01457,0.01285,0.01272,0.012785
2791.79425,0.01308,0.01552,0.0143,0.01257,0.01251,0.01254
2789.73389,0.01279,0.01534,0.014065,0.01234,0.01231,0.012325
2787.67352,0.01254,0.01509,0.013815,0.01222,0.01214,0.01218
2785.61316,0.01233,0.01478,0.013555,0.01218,0.01207,0.012125
2783.5528,0.01215,0.01451,0.01333,0.01213,0.01208,0.012105
2781.49243,0.01193,0.01424,0.013085,0.01198,0.01204,0.01201
2779.43207,0.01159,0.0139,0.012745,0.0118,0.01189,0.011845
2777.3717,0.01124,0.0136,0.01242,0.01162,0.01167,0.011645
2775.31134,0.01106,0.01345,0.012255,0.01151,0.01142,0.011465
2773.25097,0.01098,0.01334,0.01216,0.01148,0.01126,0.01137
2771.19061,0.01082,0.01312,0.01197,0.01138,0.01115,0.011265
2769.13024,0.01057,0.01279,0.01168,0.01117,0.01098,0.011075
2767.06988,0.01032,0.01249,0.011405,0.01096,0.01079,0.010875
2765.00951,0.01018,0.01237,0.011275,0.01084,0.01067,0.010755
2762.94915,0.01005,0.01234,0.011195,0.01077,0.01058,0.010675
2760.88878,0.00981,0.01223,0.01102,0.01073,0.01053,0.01063
2758.82842,0.00957,0.01203,0.0108,0.0107,0.01054,0.01062
2756.76805,0.00949,0.01181,0.01065,0.0106,0.01051,0.010555
2754.70769,0.00953,0.01167,0.0106,0.01042,0.01037,0.010395
2752.64732,0.00959,0.01164,0.010615,0.01023,0.01021,0.01022
2750.58696,0.00953,0.01159,0.01056,0.01011,0.01007,0.01009
2748.52659,0.00937,0.01156,0.010465,0.01002,0.00991,0.009965
2746.46623,0.00913,0.01148,0.010305,0.00996,0.0098,0.00988
2744.40586,0.00891,0.01127,0.01009,0.00997,0.00976,0.009865
2742.3455,0.00877,0.01102,0.009895,0.00991,0.00967,0.00979
2740.28514,0.00867,0.01082,0.009745,0.00971,0.00948,0.009595
2738.22477,0.00863,0.01072,0.009675,0.00954,0.00928,0.00941
2736.16441,0.00866,0.01075,0.009705,0.00947,0.0092,0.009335
2734.10404,0.00866,0.01081,0.009735,0.00934,0.00913,0.009235
2732.04368,0.00852,0.01076,0.00964,0.00922,0.00901,0.009115
2729.98331,0.00837,0.01064,0.009505,0.00919,0.00889,0.00904
2727.92295,0.0083,0.01053,0.009415,0.00912,0.0088,0.00896
2725.86258,0.00826,0.01045,0.009355,0.00898,0.00874,0.00886
2723.80222,0.00823,0.01037,0.0093,0.00884,0.00863,0.008735
2721.74185,0.00822,0.01026,0.00924,0.00875,0.00847,0.00861
2719.68149,0.00818,0.01013,0.009155,0.00866,0.0084,0.00853
2717.62112,0.00802,0.01004,0.00903,0.0085,0.00837,0.008435
2715.56076,0.00785,0.00999,0.00892,0.00834,0.00829,0.008315
2713.50039,0.00779,0.01,0.008895,0.00826,0.00809,0.008175
2711.44003,0.00785,0.01006,0.008955,0.0082,0.00785,0.008025
2709.37966,0.00795,0.01014,0.009045,0.00817,0.00781,0.00799
2707.3193,0.00803,0.01016,0.009095,0.00825,0.00798,0.008115
2705.25893,0.00799,0.01006,0.009025,0.00828,0.00804,0.00816
2703.19857,0.00788,0.00996,0.00892,0.00817,0.00788,0.008025
2701.1382,0.00789,0.00998,0.008935,0.00808,0.0078,0.00794
2699.07784,0.00805,0.01012,0.009085,0.00808,0.00789,0.007985
2697.01748,0.00809,0.01014,0.009115,0.00806,0.0079,0.00798
2694.95711,0.00799,0.01004,0.009015,0.008,0.00778,0.00789
2692.89675,0.00798,0.00996,0.00897,0.00799,0.00773,0.00786
2690.83638,0.00801,0.00993,0.00897,0.00805,0.0078,0.007925
2688.77602,0.00801,0.00997,0.00899,0.0081,0.00784,0.00797
2686.71565,0.008,0.01003,0.009015,0.00803,0.00779,0.00791
2684.65529,0.00797,0.00999,0.00898,0.00795,0.00779,0.00787
2682.59492,0.00791,0.00993,0.00892,0.008,0.00784,0.00792
2680.53456,0.00786,0.00987,0.008865,0.00801,0.0078,0.007905
2678.47419,0.00785,0.00977,0.00881,0.0079,0.00772,0.00781
2676.41383,0.00786,0.0097,0.00878,0.00782,0.00767,0.007745
2674.35346,0.00777,0.00971,0.00874,0.00779,0.00763,0.00771
2672.2931,0.00765,0.00968,0.008665,0.0077,0.00754,0.00762
2670.23273,0.00762,0.00958,0.0086,0.00765,0.00745,0.00755
2668.17237,0.00759,0.00951,0.00855,0.00776,0.00748,0.00762
2666.112,0.00751,0.00949,0.0085,0.00796,0.00764,0.0078
2664.05164,0.00753,0.0095,0.008515,0.00804,0.00773,0.007885
2661.99127,0.00762,0.00945,0.008535,0.00792,0.00765,0.007785
2659.93091,0.00761,0.00935,0.00848,0.00775,0.0075,0.007625
2657.87054,0.00758,0.00937,0.008475,0.0077,0.00746,0.00758
2655.81018,0.00768,0.00952,0.0086,0.00772,0.00754,0.00763
2653.74982,0.0078,0.00962,0.00871,0.00766,0.00758,0.00762
2651.68945,0.0078,0.00958,0.00869,0.0076,0.00751,0.007555
2649.62909,0.00763,0.00948,0.008555,0.00761,0.00738,0.007495
2647.56872,0.00744,0.00943,0.008435,0.00761,0.00726,0.007435
2645.50836,0.00739,0.00939,0.00839,0.00756,0.0072,0.00738
2643.44799,0.00732,0.00924,0.00828,0.00756,0.0072,0.00738
2641.38763,0.00714,0.00906,0.0081,0.00752,0.00719,0.007355
2639.32726,0.00705,0.00901,0.00803,0.0073,0.0071,0.0072
2637.2669,0.00705,0.009,0.008025,0.00697,0.00694,0.006955
2635.20653,0.00702,0.00896,0.00799,0.00676,0.00677,0.006765
2633.14617,0.00704,0.00896,0.008,0.00673,0.00669,0.00671
2631.0858,0.0071,0.00891,0.008005,0.00679,0.00671,0.00675
2629.02544,0.00698,0.00881,0.007895,0.00683,0.00668,0.006755
2626.96507,0.00684,0.00877,0.007805,0.00682,0.00662,0.00672
2624.90471,0.00691,0.00878,0.007845,0.00678,0.00661,0.006695
2622.84434,0.00698,0.00874,0.00786,0.00678,0.00659,0.006685
2620.78398,0.00682,0.00859,0.007705,0.00674,0.00661,0.006675
2618.72361,0.00652,0.00837,0.007445,0.00664,0.00665,0.006645
2616.66325,0.00628,0.00819,0.007235,0.00658,0.00657,0.006575
2614.60288,0.00627,0.0081,0.007185,0.00658,0.00638,0.00648
2612.54252,0.00645,0.00814,0.007295,0.00654,0.00628,0.00641
2610.48216,0.00658,0.00825,0.007415,0.00646,0.00632,0.00639
2608.42179,0.00657,0.0083,0.007435,0.00645,0.00641,0.00643
2606.36143,0.00658,0.00834,0.00746,0.00648,0.00646,0.00647
2604.30106,0.00669,0.00851,0.0076,0.00643,0.00642,0.006425
2602.2407,0.00668,0.00857,0.007625,0.00639,0.00626,0.006325
2600.18033,0.00645,0.00837,0.00741,0.0064,0.00608,0.00624
2598.11997,0.00626,0.00827,0.007265,0.00643,0.00607,0.00625
2596.0596,0.00632,0.00831,0.007315,0.00643,0.00622,0.006325
2593.99924,0.00644,0.00819,0.007315,0.00637,0.00628,0.006325
2591.93887,0.00633,0.00798,0.007155,0.00624,0.00614,0.00619
2589.87851,0.00613,0.00795,0.00704,0.00611,0.00602,0.006065
2587.81814,0.00617,0.00805,0.00711,0.00604,0.00606,0.00605
2585.75778,0.00632,0.00807,0.007195,0.00605,0.00613,0.00609
2583.69741,0.00628,0.00793,0.007105,0.00613,0.00614,0.006135
2581.63705,0.00602,0.00764,0.00683,0.00622,0.00604,0.00613
2579.57668,0.00583,0.00745,0.00664,0.00622,0.00593,0.006075
2577.51632,0.00583,0.00758,0.006705,0.00611,0.00597,0.00604
2575.45595,0.00582,0.00776,0.00679,0.00595,0.00598,0.005965
2573.39559,0.00566,0.00772,0.00669,0.00581,0.00574,0.005775
2571.33522,0.00542,0.00746,0.00644,0.00573,0.00548,0.005605
2569.27486,0.00531,0.00724,0.006275,0.00569,0.00538,0.005535
2567.2145,0.00548,0.00727,0.006375,0.00573,0.00542,0.005575
2565.15413,0.0058,0.00746,0.00663,0.00579,0.00553,0.00566
2563.09377,0.00587,0.00752,0.006695,0.00574,0.00563,0.005685
2561.0334,0.00559,0.00735,0.00647,0.00558,0.00567,0.005625
2558.97304,0.00538,0.00712,0.00625,0.00553,0.00562,0.005575
2556.91267,0.00547,0.00696,0.006215,0.00562,0.00554,0.00558
2554.85231,0.00559,0.00686,0.006225,0.00568,0.00559,0.005635
2552.79194,0.00555,0.00688,0.006215,0.00582,0.00579,0.005805
2550.73158,0.00545,0.00704,0.006245,0.00604,0.00596,0.006
2548.67121,0.00543,0.00715,0.00629,0.006,0.00584,0.00592
2546.61085,0.0054,0.00713,0.006265,0.00572,0.00554,0.00563
2544.55048,0.00524,0.00707,0.006155,0.00557,0.00529,0.00543
2542.49012,0.00515,0.00707,0.00611,0.00556,0.00516,0.00536
2540.42975,0.00528,0.00717,0.006225,0.00543,0.00511,0.00527
2538.36939,0.00545,0.00718,0.006315,0.00517,0.00508,0.005125
2536.30902,0.00547,0.00702,0.006245,0.00509,0.00514,0.005115
2534.24866,0.00543,0.00681,0.00612,0.00521,0.00524,0.005225
2532.18829,0.0053,0.00661,0.005955,0.00529,0.00519,0.00524
2530.12793,0.00504,0.00657,0.005805,0.00524,0.0051,0.00517
2528.06756,0.00485,0.00663,0.00574,0.00513,0.00512,0.005125
2526.0072,0.00483,0.00661,0.00572,0.00508,0.00512,0.0051
2523.94684,0.00485,0.00654,0.005695,0.00512,0.00497,0.005045
2521.88647,0.0049,0.00654,0.00572,0.00511,0.00473,0.00492
2519.82611,0.00502,0.00667,0.005845,0.00502,0.00458,0.0048
2517.76574,0.00508,0.00674,0.00591,0.00488,0.0046,0.00474
2515.70538,0.00496,0.00661,0.005785,0.00469,0.00466,0.004675
2513.64501,0.00483,0.00643,0.00563,0.0045,0.00459,0.004545
2511.58465,0.00481,0.00632,0.005565,0.00449,0.00441,0.00445
2509.52428,0.00481,0.00628,0.005545,0.00459,0.00425,0.00442
2507.46392,0.00474,0.00631,0.005525,0.00473,0.00429,0.00451
2505.40355,0.00465,0.00634,0.005495,0.00491,0.00447,0.00469
2503.34319,0.0046,0.00633,0.005465,0.00503,0.00453,0.00478
2501.28282,0.00468,0.0064,0.00554,0.00502,0.00453,0.004775
2499.22246,0.00482,0.00649,0.005655,0.00489,0.00454,0.004715
2497.16209,0.00491,0.0065,0.005705,0.00474,0.00447,0.004605
2495.10173,0.00492,0.00646,0.00569,0.00475,0.00438,0.004565
2493.04136,0.00486,0.00632,0.00559,0.00484,0.00432,0.00458
2490.981,0.0048,0.00615,0.005475,0.00486,0.00428,0.00457
2488.92063,0.00479,0.00618,0.005485,0.00481,0.00433,0.00457
2486.86027,0.00482,0.00639,0.005605,0.00467,0.00441,0.00454
2484.7999,0.00478,0.00654,0.00566,0.00457,0.00438,0.004475
2482.73954,0.00469,0.00643,0.00556,0.00465,0.00432,0.004485
2480.67918,0.00461,0.00619,0.0054,0.00476,0.00432,0.00454
2478.61881,0.00462,0.00623,0.005425,0.00468,0.0043,0.00449
2476.55845,0.00474,0.00648,0.00561,0.00453,0.00428,0.004405
2474.49808,0.0048,0.00658,0.00569,0.00448,0.00432,0.0044
2472.43772,0.00478,0.00652,0.00565,0.00449,0.00432,0.004405
2470.37735,0.0048,0.0064,0.0056,0.00455,0.00434,0.004445
2468.31699,0.00472,0.00628,0.0055,0.00462,0.00449,0.004555
2466.25662,0.00464,0.00629,0.005465,0.00459,0.00458,0.004585
2464.19626,0.00467,0.00635,0.00551,0.00455,0.00453,0.00454
2462.13589,0.0047,0.00645,0.005575,0.00458,0.00441,0.004495
2460.07553,0.00478,0.00652,0.00565,0.00458,0.00428,0.00443
2458.01516,0.00489,0.0064,0.005645,0.00448,0.00423,0.004355
2455.9548,0.00495,0.00626,0.005605,0.0044,0.00423,0.004315
2453.89443,0.00485,0.00624,0.005545,0.00441,0.00426,0.004335
2451.83407,0.00461,0.00616,0.005385,0.00451,0.00439,0.00445
2449.7737,0.00442,0.006,0.00521,0.00467,0.0045,0.004585
2447.71334,0.00442,0.00598,0.0052,0.00482,0.00449,0.004655
2445.65297,0.0045,0.0061,0.0053,0.00472,0.00438,0.00455
2443.59261,0.00454,0.00616,0.00535,0.00426,0.0042,0.00423
2441.53224,0.00453,0.0062,0.005365,0.00399,0.00403,0.00401
2439.47188,0.00443,0.00629,0.00536,0.00417,0.00396,0.004065
2437.41152,0.00422,0.00626,0.00524,0.0044,0.00404,0.00422
2435.35115,0.00414,0.00611,0.005125,0.00444,0.00415,0.004295
2433.29079,0.00425,0.00608,0.005165,0.00427,0.00416,0.004215
2431.23042,0.00435,0.00613,0.00524,0.00402,0.00401,0.004015
2429.17006,0.00423,0.00607,0.00515,0.00384,0.00383,0.003835
2427.10969,0.00404,0.00582,0.00493,0.00381,0.00375,0.00378
2425.04933,0.00401,0.00551,0.00476,0.00388,0.00363,0.003755
2422.98896,0.00399,0.00545,0.00472,0.00393,0.00349,0.00371
2420.9286,0.00393,0.00559,0.00476,0.00395,0.00353,0.00374
2418.86823,0.00393,0.00555,0.00474,0.00395,0.00373,0.00384
2416.80787,0.00389,0.00533,0.00461,0.00394,0.00384,0.00389
2414.7475,0.00376,0.00523,0.004495,0.00395,0.0038,0.003875
2412.68714,0.00382,0.00541,0.004615,0.00392,0.00376,0.00384
2410.62677,0.00396,0.00566,0.00481,0.00391,0.00383,0.00387
2408.56641,0.00388,0.00567,0.004775,0.00388,0.00387,0.003875
2406.50604,0.0037,0.00552,0.00461,0.0038,0.00375,0.003775
2404.44568,0.0036,0.0055,0.00455,0.00375,0.00364,0.003695
2402.38531,0.00365,0.00556,0.004605,0.00368,0.00359,0.003635
2400.32495,0.00378,0.00553,0.004655,0.00359,0.00348,0.003535
2398.26458,0.00387,0.00541,0.00464,0.00351,0.00334,0.003425
2396.20422,0.00381,0.00526,0.004535,0.00348,0.0033,0.00339
2394.14386,0.00365,0.00512,0.004385,0.00336,0.00326,0.00331
2392.08349,0.00365,0.00515,0.0044,0.00317,0.00316,0.003165
2390.02313,0.00378,0.00532,0.00455,0.00313,0.0031,0.003115
2387.96276,0.00376,0.00538,0.00457,0.00321,0.00312,0.003165
2385.9024,0.00365,0.00532,0.004485,0.00329,0.00314,0.003215
2383.84203,0.00366,0.00533,0.004495,0.00334,0.00311,0.003225
2381.78167,0.00369,0.00538,0.004535,0.00337,0.00315,0.00326
2379.7213,0.00363,0.0054,0.004515,0.00333,0.00322,0.003275
2377.66094,0.00357,0.00549,0.00453,0.00324,0.00323,0.003235
2375.60057,0.00357,0.00549,0.00453,0.00326,0.00333,0.003295
2373.54021,0.00363,0.0053,0.004465,0.00333,0.00343,0.00338
2371.47984,0.00372,0.00518,0.00445,0.00313,0.00314,0.003135
2369.41948,0.0038,0.00518,0.00449,0.00276,0.0026,0.00268
2367.35911,0.00396,0.0052,0.00458,0.00263,0.00244,0.002535
2365.29875,0.00395,0.00508,0.004515,0.00279,0.0028,0.002795
2363.23838,0.00375,0.00508,0.004415,0.00314,0.00329,0.003215
2361.17802,0.00373,0.00553,0.00463,0.00354,0.00355,0.003545
2359.11765,0.00372,0.00588,0.0048,0.00372,0.00351,0.003615
2357.05729,0.00374,0.00587,0.004805,0.00367,0.00345,0.00356
2354.99692,0.00394,0.0058,0.00487,0.00346,0.00345,0.003455
2352.93656,0.00411,0.0059,0.005005,0.00318,0.00326,0.00322
2350.8762,0.00402,0.00592,0.00497,0.00324,0.0032,0.00322
2348.81583,0.00371,0.0056,0.004655,0.00348,0.00338,0.00343
2346.75547,0.0034,0.00516,0.00428,0.00346,0.00348,0.00347
2344.6951,0.00323,0.00502,0.004125,0.00327,0.00339,0.00333
2342.63474,0.00317,0.00528,0.004225,0.0034,0.00338,0.00339
2340.57437,0.00334,0.00564,0.00449,0.00363,0.00358,0.003605
2338.51401,0.00368,0.00577,0.004725,0.00365,0.00372,0.003685
2336.45364,0.00384,0.00561,0.004725,0.00364,0.00372,0.00368
2334.39328,0.00376,0.00533,0.004545,0.00362,0.00375,0.003685
2332.33291,0.00366,0.00515,0.004405,0.00351,0.00375,0.00363
2330.27255,0.00372,0.00518,0.00445,0.0034,0.00366,0.00353
2328.21218,0.00392,0.00548,0.0047,0.00345,0.00371,0.00358
2326.15182,0.00422,0.00593,0.005075,0.00379,0.00395,0.00387
2324.09145,0.00448,0.00614,0.00531,0.00426,0.00415,0.004205
2322.03109,0.00445,0.00589,0.00517,0.00437,0.00408,0.004225
2319.97072,0.00428,0.00555,0.004915,0.00401,0.00381,0.00391
2317.91036,0.00417,0.00545,0.00481,0.00372,0.00369,0.003705
2315.84999,0.00405,0.00552,0.004785,0.00368,0.00385,0.003765
2313.78963,0.00399,0.00561,0.0048,0.00366,0.0039,0.00378
2311.72926,0.00404,0.00575,0.004895,0.00363,0.00367,0.00365
2309.6689,0.00396,0.00581,0.004885,0.00355,0.00348,0.003515
2307.60854,0.00374,0.00562,0.00468,0.00341,0.00344,0.003425
2305.54817,0.00364,0.00535,0.004495,0.00329,0.00345,0.00337
2303.48781,0.00368,0.00523,0.004455,0.00324,0.00345,0.003345
2301.42744,0.00371,0.00524,0.004475,0.00333,0.00342,0.003375
2299.36708,0.0037,0.00538,0.00454,0.00346,0.00331,0.003385
2297.30671,0.00373,0.00557,0.00465,0.00352,0.00326,0.00339
2295.24635,0.00377,0.00562,0.004695,0.00343,0.00328,0.003355
2293.18598,0.00385,0.00562,0.004735,0.00324,0.00336,0.0033
2291.12562,0.00398,0.00565,0.004815,0.00319,0.00369,0.00344
2289.06525,0.00416,0.00572,0.00494,0.00336,0.00411,0.003735
2287.00489,0.0044,0.0059,0.00515,0.00367,0.00423,0.00395
2284.94452,0.00431,0.0059,0.005105,0.00391,0.00403,0.00397
2282.88416,0.00368,0.00553,0.004605,0.00377,0.00373,0.00375
2280.82379,0.00312,0.00518,0.00415,0.00355,0.00351,0.00353
2278.76343,0.00319,0.00516,0.004175,0.0036,0.00347,0.003535
2276.70306,0.00348,0.00527,0.004375,0.00361,0.00343,0.00352
2274.6427,0.00342,0.00498,0.0042,0.00338,0.00318,0.00328
2272.58233,0.00317,0.00453,0.00385,0.0032,0.00287,0.003035
2270.52197,0.00313,0.00453,0.00383,0.00315,0.00272,0.002935
2268.4616,0.00319,0.00476,0.003975,0.00305,0.00263,0.00284
2266.40124,0.00321,0.00481,0.00401,0.00274,0.00241,0.002575
2264.34088,0.00332,0.00486,0.00409,0.00239,0.00231,0.00235
2262.28051,0.00345,0.0049,0.004175,0.00245,0.00253,0.00249
2260.22015,0.00358,0.0047,0.00414,0.00291,0.00299,0.00295
2258.15978,0.00361,0.00454,0.004075,0.0032,0.00343,0.003315
2256.09942,0.0032,0.00456,0.00388,0.00305,0.00345,0.00325
2254.03905,0.00277,0.00453,0.00365,0.00279,0.00318,0.002985
2251.97869,0.0028,0.00448,0.00364,0.00268,0.00302,0.00285
2249.91832,0.00287,0.00457,0.00372,0.00266,0.00297,0.002815
2247.85796,0.00278,0.00458,0.00368,0.00262,0.00296,0.00279
2245.79759,0.00291,0.00445,0.00368,0.00259,0.00294,0.002765
2243.73723,0.00317,0.00456,0.003865,0.00279,0.00298,0.002885
2241.67686,0.00328,0.00491,0.004095,0.00306,0.00305,0.003055
2239.6165,0.00342,0.00501,0.004215,0.00303,0.00301,0.00302
2237.55613,0.00352,0.00473,0.004125,0.00294,0.00304,0.00299
2235.49577,0.00338,0.00451,0.003945,0.00305,0.00315,0.0031
2233.4354,0.00319,0.0046,0.003895,0.00307,0.00332,0.003195
2231.37504,0.00315,0.00476,0.003955,0.00273,0.00345,0.00309
2229.31467,0.0031,0.00486,0.00398,0.00221,0.00321,0.00271
2227.25431,0.00308,0.00504,0.00406,0.00199,0.0029,0.002445
2225.19394,0.00307,0.00511,0.00409,0.00222,0.00296,0.00259
2223.13358,0.00282,0.0048,0.00381,0.00258,0.00319,0.002885
2221.07322,0.00253,0.00449,0.00351,0.00261,0.00318,0.002895
2219.01285,0.00237,0.00429,0.00333,0.00253,0.00302,0.002775
2216.95249,0.00236,0.0039,0.00313,0.00281,0.00308,0.002945
2214.89212,0.00254,0.00362,0.00308,0.00307,0.0031,0.003085
2212.83176,0.00289,0.00399,0.00344,0.00279,0.00302,0.002905
2210.77139,0.00319,0.00465,0.00392,0.00253,0.00331,0.00292
2208.71103,0.00316,0.00483,0.003995,0.00263,0.00362,0.003125
2206.65066,0.00286,0.00466,0.00376,0.00264,0.00339,0.003015
2204.5903,0.00258,0.00449,0.003535,0.00269,0.00319,0.00294
2202.52993,0.0026,0.00441,0.003505,0.00299,0.00338,0.003185
2200.46957,0.00282,0.00455,0.003685,0.00336,0.00361,0.003485
2198.4092,0.00298,0.00484,0.00391,0.00372,0.00365,0.003685
2196.34884,0.00311,0.00511,0.00411,0.00374,0.0034,0.00357
2194.28847,0.00308,0.00524,0.00416,0.00328,0.00331,0.003295
2192.22811,0.00308,0.00534,0.00421,0.00285,0.00361,0.00323
2190.16774,0.00349,0.00549,0.00449,0.00272,0.00372,0.00322
2188.10738,0.00391,0.00534,0.004625,0.00305,0.00368,0.003365
2186.04701,0.00351,0.0047,0.004105,0.00352,0.00376,0.00364
2183.98665,0.00247,0.00419,0.00333,0.00344,0.00365,0.003545
2181.92628,0.00191,0.00439,0.00315,0.00314,0.00346,0.0033
2179.86592,0.00211,0.00493,0.00352,0.00327,0.00364,0.003455
2177.80555,0.00243,0.00529,0.00386,0.00321,0.00373,0.00347
2175.74519,0.00245,0.00527,0.00386,0.00253,0.00326,0.002895
2173.68483,0.0025,0.00501,0.003755,0.00219,0.0028,0.002495
2171.62446,0.00291,0.00505,0.00398,0.00281,0.00288,0.002845
2169.5641,0.00369,0.00574,0.004715,0.00377,0.00346,0.003615
2167.50373,0.00455,0.00659,0.00557,0.00401,0.00419,0.0041
2165.44337,0.00488,0.00684,0.00586,0.0031,0.00439,0.003745
2163.383,0.0047,0.00644,0.00557,0.00214,0.00394,0.00304
2161.32264,0.00429,0.00564,0.004965,0.002,0.00312,0.00256
2159.26227,0.00295,0.00424,0.003595,0.00179,0.00181,0.0018
2157.20191,0.00098,0.00303,0.002005,0.00131,0.00071,0.00101
2155.14154,0.00031,0.00317,0.00174,0.00127,0.00088,0.001075
2153.08118,0.001,0.00403,0.002515,0.00183,0.00206,0.001945
2151.02081,0.00172,0.00431,0.003015,0.00251,0.00292,0.002715
2148.96045,0.00192,0.00384,0.00288,0.00267,0.00297,0.00282
2146.90008,0.00193,0.00325,0.00259,0.00279,0.00277,0.00278
2144.83972,0.0022,0.00304,0.00262,0.00325,0.00255,0.0029
2142.77935,0.00271,0.00336,0.003035,0.0035,0.00237,0.002935
2140.71899,0.0028,0.00387,0.003335,0.00313,0.00232,0.002725
2138.65862,0.00245,0.00427,0.00336,0.00262,0.00257,0.002595
2136.59826,0.00226,0.00447,0.003365,0.00244,0.00278,0.00261
2134.53789,0.00217,0.0045,0.003335,0.00235,0.00255,0.00245
2132.47753,0.00215,0.00436,0.003255,0.00245,0.00245,0.00245
2130.41717,0.00213,0.004,0.003065,0.00261,0.00252,0.002565
2128.3568,0.00182,0.0037,0.00276,0.00257,0.00247,0.00252
2126.29644,0.0017,0.00363,0.002665,0.00256,0.00242,0.00249
2124.23607,0.00215,0.00388,0.003015,0.00251,0.0024,0.002455
2122.17571,0.00284,0.00446,0.00365,0.00258,0.00249,0.002535
2120.11534,0.00337,0.00501,0.00419,0.00296,0.00283,0.002895
2118.05498,0.00359,0.00535,0.00447,0.00308,0.00312,0.0031
2115.99461,0.00347,0.00551,0.00449,0.00288,0.00322,0.00305
2113.93425,0.00321,0.00544,0.004325,0.00291,0.00343,0.00317
2111.87388,0.00307,0.00519,0.00413,0.00324,0.00367,0.003455
2109.81352,0.00314,0.00485,0.003995,0.00352,0.00358,0.00355
2107.75315,0.0033,0.00449,0.003895,0.0035,0.00344,0.00347
2105.69279,0.0031,0.00429,0.003695,0.00353,0.00377,0.00365
2103.63242,0.00267,0.00447,0.00357,0.00379,0.00415,0.00397
2101.57206,0.00274,0.00507,0.003905,0.00385,0.00406,0.003955
2099.51169,0.00303,0.00558,0.004305,0.00351,0.00381,0.00366
2097.45133,0.00289,0.0053,0.004095,0.00296,0.00344,0.0032
2095.39096,0.00278,0.00475,0.003765,0.0024,0.00288,0.00264
2093.3306,0.003,0.00465,0.003825,0.00223,0.00277,0.0025
2091.27023,0.00313,0.00462,0.003875,0.00255,0.00306,0.002805
2089.20987,0.00309,0.00453,0.00381,0.00297,0.00315,0.00306
2087.14951,0.00308,0.0047,0.00389,0.00323,0.00319,0.00321
2085.08914,0.003,0.00461,0.003805,0.00339,0.00343,0.00341
2083.02878,0.00283,0.00419,0.00351,0.00341,0.00343,0.00342
2080.96841,0.0028,0.00426,0.00353,0.00332,0.00307,0.003195
2078.90805,0.0028,0.00445,0.003625,0.00324,0.00265,0.002945
2076.84768,0.0029,0.00421,0.003555,0.00315,0.00248,0.002815
2074.78732,0.00313,0.00397,0.00355,0.00315,0.00267,0.00291
2072.72695,0.00302,0.00385,0.003435,0.00314,0.00268,0.00291
2070.66659,0.00275,0.00391,0.00333,0.00297,0.0024,0.002685
2068.60622,0.00288,0.00427,0.003575,0.00296,0.00239,0.002675
2066.54586,0.00308,0.00453,0.003805,0.00305,0.00269,0.00287
2064.48549,0.00273,0.00434,0.003535,0.00279,0.00269,0.00274
2062.42513,0.00233,0.00411,0.00322,0.0025,0.00233,0.002415
2060.36476,0.00263,0.00429,0.00346,0.00277,0.0025,0.002635
2058.3044,0.00285,0.00461,0.00373,0.00311,0.00316,0.003135
2056.24403,0.00246,0.0045,0.00348,0.00275,0.00318,0.002965
2054.18367,0.00242,0.00415,0.003285,0.00247,0.0027,0.002585
2052.1233,0.00307,0.00398,0.003525,0.00282,0.00274,0.00278
2050.06294,0.0036,0.00375,0.003675,0.00307,0.00291,0.00299
2048.00257,0.00371,0.00377,0.00374,0.00307,0.00297,0.00302
2045.94221,0.00372,0.00433,0.004025,0.00328,0.00346,0.00337
2043.88185,0.00378,0.00502,0.0044,0.00325,0.00369,0.00347
2041.82148,0.0038,0.00529,0.004545,0.00267,0.00327,0.00297
2039.76112,0.00334,0.00474,0.00404,0.00241,0.00297,0.00269
2037.70075,0.00269,0.00446,0.003575,0.0029,0.00308,0.00299
2035.64039,0.00269,0.00523,0.00396,0.00356,0.00351,0.003535
2033.58002,0.00253,0.00569,0.00411,0.00346,0.00366,0.00356
2031.51966,0.0015,0.00508,0.00329,0.00226,0.00255,0.002405
2029.45929,0.00042,0.00399,0.002205,0.00097,0.00103,0.001
2027.39893,0,0.00295,0.001475,0.00077,0.00076,0.000765
2025.33856,0.0001,0.0026,0.00135,0.00151,0.0017,0.001605
2023.2782,0.00102,0.0034,0.00221,0.00219,0.00286,0.002525
2021.21783,0.0026,0.00458,0.00359,0.00229,0.00346,0.002875
2019.15747,0.00364,0.00513,0.004385,0.0022,0.00336,0.00278
2017.0971,0.00388,0.0049,0.00439,0.00229,0.00275,0.00252
2015.03674,0.00348,0.00459,0.004035,0.00201,0.00199,0.002
2012.97637,0.00285,0.00451,0.00368,0.00162,0.00204,0.00183
2010.91601,0.00216,0.00398,0.00307,0.00211,0.00282,0.002465
2008.85564,0.00146,0.00326,0.00236,0.00268,0.00289,0.002785
2006.79528,0.00146,0.00323,0.002345,0.00221,0.00205,0.00213
2004.73491,0.00188,0.00341,0.002645,0.00159,0.00153,0.00156
2002.67455,0.00217,0.00347,0.00282,0.00139,0.0016,0.001495
2000.61419,0.00237,0.0038,0.003085,0.00112,0.00175,0.001435
1998.55382,0.00208,0.0039,0.00299,0.00116,0.00188,0.00152
1996.49346,0.00197,0.00368,0.002825,0.00154,0.00181,0.001675
1994.43309,0.00253,0.00395,0.00324,0.00179,0.00181,0.0018
1992.37273,0.00258,0.00446,0.00352,0.00189,0.00219,0.00204
1990.31236,0.0022,0.00434,0.00327,0.00167,0.00223,0.00195
1988.252,0.00219,0.0038,0.002995,0.00124,0.00195,0.001595
1986.19163,0.00249,0.0037,0.003095,0.00134,0.00193,0.001635
1984.13127,0.00292,0.00417,0.003545,0.00224,0.00233,0.002285
1982.0709,0.00299,0.00486,0.003925,0.00308,0.00279,0.002935
1980.01054,0.00251,0.00535,0.00393,0.00296,0.00246,0.00271
1977.95017,0.0018,0.00492,0.00336,0.00196,0.0015,0.00173
1975.88981,0.00136,0.00366,0.00251,0.00085,0.00097,0.00091
1973.82944,0.00141,0.00314,0.002275,0.00067,0.00105,0.00086
1971.76908,0.00125,0.0034,0.002325,0.00114,0.00141,0.001275
1969.70871,0.00116,0.00353,0.002345,0.00104,0.00167,0.001355
1967.64835,0.00152,0.00367,0.002595,0.00061,0.00178,0.001195
1965.58798,0.00168,0.00396,0.00282,0.00086,0.00212,0.00149
1963.52762,0.00155,0.00405,0.0028,0.00151,0.00257,0.00204
1961.46725,0.00129,0.00373,0.00251,0.00144,0.00234,0.00189
1959.40689,0.00126,0.00339,0.002325,0.0005,0.00122,0.00086
1957.34653,0.00185,0.00369,0.00277,0,0.00036,0.00018
1955.28616,0.00221,0.00419,0.0032,0.00052,0.00058,0.00055
1953.2258,0.00182,0.00397,0.002895,0.00115,0.00125,0.0012
1951.16543,0.00137,0.00314,0.002255,0.00143,0.00163,0.00153
1949.10507,0.00122,0.00265,0.001935,0.00156,0.0018,0.00168
1947.0447,0.00139,0.00278,0.002085,0.00156,0.00217,0.001865
1944.98434,0.00159,0.00296,0.002275,0.00139,0.00234,0.001865
1942.92397,0.00158,0.00291,0.002245,0.00107,0.0018,0.001435
1940.86361,0.00156,0.00304,0.0023,0.00098,0.00123,0.001105
1938.80324,0.00164,0.00336,0.0025,0.00139,0.00125,0.00132
1936.74288,0.00173,0.00325,0.00249,0.00149,0.00132,0.001405
1934.68251,0.00145,0.00256,0.002005,0.00104,0.00116,0.0011
1932.62215,0.00108,0.00236,0.00172,0.00081,0.0012,0.001005
1930.56178,0.00099,0.00293,0.00196,0.0009,0.00147,0.001185
1928.50142,0.00092,0.00318,0.00205,0.00108,0.00161,0.001345
1926.44105,0.00088,0.00301,0.001945,0.0014,0.00175,0.001575
1924.38069,0.00089,0.00297,0.00193,0.00185,0.00197,0.00191
1922.32032,0.00089,0.00305,0.00197,0.00198,0.00187,0.001925
1920.25996,0.001,0.00327,0.002135,0.00177,0.00162,0.001695
1918.19959,0.00122,0.00368,0.00245,0.00173,0.00168,0.001705
1916.13923,0.00131,0.00373,0.00252,0.00184,0.00206,0.00195
1914.07887,0.00122,0.0034,0.00231,0.0018,0.00238,0.00209
1912.0185,0.00116,0.00332,0.00224,0.00166,0.00227,0.001965
1909.95814,0.00121,0.0035,0.002355,0.00155,0.00199,0.00177
1907.89777,0.00122,0.00349,0.002355,0.00159,0.00199,0.00179
1905.83741,0.00104,0.00328,0.00216,0.00172,0.00198,0.00185
1903.77704,0.00086,0.00313,0.001995,0.00175,0.00177,0.00176
1901.71668,0.00099,0.00308,0.002035,0.0016,0.00171,0.001655
1899.65631,0.00127,0.00299,0.00213,0.00149,0.00185,0.00167
1897.59595,0.00135,0.00284,0.002095,0.00149,0.00189,0.00169
1895.53558,0.00149,0.00287,0.00218,0.0015,0.00167,0.001585
1893.47522,0.00159,0.00308,0.002335,0.00144,0.00141,0.001425
1891.41485,0.00133,0.00317,0.00225,0.00127,0.0014,0.001335
1889.35449,0.00101,0.00315,0.00208,0.00113,0.00153,0.00133
1887.29412,0.00105,0.00322,0.002135,0.00113,0.00164,0.001385
1885.23376,0.00123,0.00327,0.00225,0.00104,0.00163,0.001335
1883.17339,0.0012,0.00315,0.002175,0.001,0.00168,0.00134
1881.11303,0.00108,0.00306,0.00207,0.00122,0.00189,0.001555
1879.05266,0.00116,0.0031,0.00213,0.00135,0.00189,0.00162
1876.9923,0.00139,0.00316,0.002275,0.00117,0.00162,0.001395
1874.93193,0.00153,0.00321,0.00237,0.00093,0.00141,0.00117
1872.87157,0.00157,0.0034,0.002485,0.00091,0.00147,0.00119
1870.81121,0.00164,0.00356,0.0026,0.00112,0.0018,0.00146
1868.75084,0.00176,0.0035,0.00263,0.00153,0.00216,0.001845
1866.69048,0.00177,0.00334,0.002555,0.00181,0.00221,0.00201
1864.63011,0.00157,0.00322,0.002395,0.00175,0.00202,0.001885
1862.56975,0.00132,0.00314,0.00223,0.0015,0.00177,0.001635
1860.50938,0.00122,0.00312,0.00217,0.00136,0.00172,0.00154
1858.44902,0.00136,0.00325,0.002305,0.00147,0.00193,0.0017
1856.38865,0.00156,0.00345,0.002505,0.00145,0.00199,0.00172
1854.32829,0.00164,0.0035,0.00257,0.00128,0.00188,0.00158
1852.26792,0.00154,0.00334,0.00244,0.00132,0.00196,0.00164
1850.20756,0.00126,0.00316,0.00221,0.00141,0.00203,0.00172
1848.14719,0.001,0.00318,0.00209,0.00122,0.00189,0.001555
1846.08683,0.00107,0.00339,0.00223,0.00098,0.00178,0.00138
1844.02646,0.00134,0.00356,0.00245,0.00095,0.00173,0.00134
1841.9661,0.00131,0.00356,0.002435,0.00101,0.00175,0.00138
1839.90573,0.00124,0.00356,0.0024,0.0012,0.00198,0.00159
1837.84537,0.00135,0.00356,0.002455,0.00135,0.00209,0.00172
1835.785,0.0015,0.00352,0.00251,0.00121,0.00188,0.001545
1833.72464,0.00159,0.00355,0.00257,0.00099,0.00162,0.001305
1831.66427,0.0016,0.00371,0.002655,0.00099,0.00157,0.00128
1829.60391,0.00153,0.00373,0.00263,0.00114,0.00172,0.00143
1827.54355,0.00157,0.0036,0.002585,0.00128,0.00197,0.001625
1825.48318,0.00172,0.00369,0.002705,0.0013,0.00205,0.001675
1823.42282,0.00172,0.00386,0.00279,0.00126,0.00194,0.0016
1821.36245,0.00156,0.00386,0.00271,0.00134,0.00198,0.00166
1819.30209,0.00135,0.00371,0.00253,0.0014,0.00205,0.001725
1817.24172,0.0012,0.00341,0.002305,0.00129,0.00189,0.00159
1815.18136,0.00124,0.00319,0.002215,0.00128,0.00186,0.00157
1813.12099,0.00144,0.00326,0.00235,0.00147,0.00213,0.0018
1811.06063,0.00162,0.00349,0.002555,0.00163,0.00232,0.001975
1809.00026,0.00179,0.00371,0.00275,0.00158,0.00217,0.001875
1806.9399,0.00191,0.0038,0.002855,0.00152,0.00205,0.001785
1804.87953,0.0019,0.00383,0.002865,0.00168,0.00215,0.001915
1802.81917,0.00178,0.00388,0.00283,0.00183,0.00222,0.002025
1800.7588,0.00164,0.00392,0.00278,0.00175,0.00214,0.001945
1798.69844,0.00154,0.00386,0.0027,0.00159,0.00206,0.001825
1796.63807,0.00153,0.0038,0.002665,0.00164,0.00211,0.001875
1794.57771,0.00164,0.00387,0.002755,0.00187,0.00225,0.00206
1792.51734,0.00185,0.00399,0.00292,0.0021,0.00237,0.002235
1790.45698,0.00186,0.00391,0.002885,0.00213,0.00234,0.002235
1788.39661,0.00163,0.00369,0.00266,0.00181,0.00219,0.002
1786.33625,0.00146,0.00357,0.002515,0.00139,0.00205,0.00172
1784.27589,0.00136,0.00349,0.002425,0.00123,0.00202,0.001625
1782.21552,0.00137,0.00343,0.0024,0.00138,0.00214,0.00176
1780.15516,0.00158,0.0035,0.00254,0.00158,0.00218,0.00188
1778.09479,0.00181,0.00367,0.00274,0.00164,0.00209,0.001865
1776.03443,0.00177,0.0037,0.002735,0.00165,0.00205,0.00185
1773.97406,0.0016,0.00361,0.002605,0.00188,0.00215,0.002015
1771.9137,0.00163,0.00353,0.00258,0.00226,0.00231,0.002285
1769.85333,0.00183,0.00345,0.00264,0.0024,0.00241,0.002405
1767.79297,0.00174,0.0031,0.00242,0.00227,0.00249,0.00238
1765.7326,0.00157,0.00255,0.00206,0.0021,0.00266,0.00238
1763.67224,0.00181,0.00246,0.002135,0.00205,0.00274,0.002395
1761.61187,0.00211,0.0029,0.002505,0.00206,0.0024,0.00223
1759.55151,0.00193,0.00321,0.00257,0.00241,0.00211,0.00226
1757.49114,0.00162,0.003,0.00231,0.00308,0.0024,0.00274
1755.43078,0.0015,0.0024,0.00195,0.0031,0.00251,0.002805
1753.37041,0.00066,0.00151,0.001085,0.0021,0.00141,0.001755
1751.31005,0,0.00128,0.00064,0.00184,0.00049,0.001165
1749.24968,0.00075,0.00152,0.001135,0.00267,0.00142,0.002045
1747.18932,0.00231,0.00194,0.002125,0.00347,0.00222,0.002845
1745.12895,0.00386,0.00321,0.003535,0.00361,0.00111,0.00236
1743.06859,0.00434,0.00397,0.004155,0.00338,0,0.00169
1741.00823,0.00279,0.00205,0.00242,0.00394,0.00061,0.002275
1738.94786,0.00189,0,0.000945,0.00395,0.00233,0.00314
1736.8875,0.00401,0.00187,0.00294,0.00168,0.00337,0.002525
1734.82713,0.00548,0.00401,0.004745,0,0.00264,0.00132
1732.76677,0.00491,0.00367,0.00429,0.00173,0.00296,0.002345
1730.7064,0.00428,0.00323,0.003755,0.00351,0.00416,0.003835
1728.64604,0.00466,0.00381,0.004235,0.00425,0.00471,0.00448
1726.58567,0.00528,0.0043,0.00479,0.0042,0.00454,0.00437
1724.52531,0.0065,0.00536,0.00593,0.00422,0.00422,0.00422
1722.46494,0.00756,0.00648,0.00702,0.00414,0.00342,0.00378
1720.40458,0.00784,0.00702,0.00743,0.00407,0.00316,0.003615
1718.34421,0.00804,0.00777,0.007905,0.00426,0.00401,0.004135
1716.28385,0.00908,0.00912,0.0091,0.00496,0.00526,0.00511
1714.22348,0.00979,0.00972,0.009755,0.0058,0.00614,0.00597
1712.16312,0.00997,0.00967,0.00982,0.00629,0.00653,0.00641
1710.10275,0.0102,0.00981,0.010005,0.00654,0.00675,0.006645
1708.04239,0.01033,0.01031,0.01032,0.0067,0.00695,0.006825
1705.98202,0.01048,0.011,0.01074,0.00689,0.00715,0.00702
1703.92166,0.01049,0.01129,0.01089,0.00698,0.00723,0.007105
1701.86129,0.01063,0.01154,0.011085,0.00715,0.00733,0.00724
1699.80093,0.01117,0.01221,0.01169,0.00747,0.00762,0.007545
1697.74057,0.01196,0.01318,0.01257,0.00789,0.00815,0.00802
1695.6802,0.01285,0.01398,0.013415,0.00824,0.00865,0.008445
1693.61984,0.0139,0.01465,0.014275,0.00866,0.00913,0.008895
1691.55947,0.01528,0.01572,0.0155,0.0093,0.00974,0.00952
1689.49911,0.01739,0.01757,0.01748,0.01024,0.01065,0.010445
1687.43874,0.01988,0.01975,0.019815,0.0113,0.01179,0.011545
1685.37838,0.02333,0.02291,0.02312,0.01291,0.01336,0.013135
1683.31801,0.02887,0.02811,0.02849,0.01576,0.01574,0.01575
1681.25765,0.03381,0.03257,0.03319,0.01837,0.01799,0.01818
1679.19728,0.03819,0.03638,0.037285,0.02074,0.02023,0.020485
1677.13692,0.04304,0.0408,0.04192,0.02358,0.02289,0.023235
1675.07655,0.04912,0.0466,0.04786,0.02741,0.0264,0.026905
1673.01619,0.0554,0.05259,0.053995,0.03143,0.03019,0.03081
1670.95582,0.06193,0.05891,0.06042,0.03587,0.03433,0.0351
1668.89546,0.07078,0.0675,0.06914,0.0422,0.04001,0.041105
1666.83509,0.07962,0.07581,0.077715,0.04876,0.04607,0.047415
1664.77473,0.08827,0.08383,0.08605,0.05514,0.05221,0.053675
1662.71436,0.10019,0.09502,0.097605,0.06357,0.06008,0.061825
1660.654,0.11429,0.10817,0.11123,0.07331,0.06877,0.07104
1658.59363,0.12769,0.12056,0.124125,0.08225,0.07679,0.07952
1656.53327,0.14049,0.13238,0.136435,0.09047,0.08444,0.087455
1654.47291,0.15781,0.14853,0.15317,0.10166,0.09426,0.09796
1652.41254,0.18873,0.17715,0.18294,0.12185,0.11068,0.116265
1650.35218,0.21232,0.19847,0.205395,0.13726,0.12402,0.13064
1648.29181,0.23266,0.21675,0.224705,0.15116,0.13631,0.143735
1646.23145,0.26549,0.24635,0.25592,0.17445,0.15511,0.16478
1644.17108,0.29878,0.27597,0.287375,0.19937,0.17507,0.18722
1642.11072,0.32512,0.299,0.31206,0.22183,0.19356,0.207695
1640.05035,0.34784,0.3188,0.33332,0.24565,0.21309,0.22937
1637.98999,0.36153,0.33143,0.34648,0.26979,0.23256,0.251175
1635.92962,0.35518,0.32917,0.342175,0.29376,0.25049,0.272125
1633.86926,0.32775,0.31004,0.318895,0.30306,0.25753,0.280295
1631.80889,0.29805,0.28711,0.29258,0.28917,0.24994,0.269555
1629.74853,0.26761,0.26234,0.264975,0.26011,0.23167,0.24589
1627.68816,0.23583,0.23549,0.23566,0.2242,0.20687,0.215535
1625.6278,0.20772,0.21073,0.209225,0.1931,0.18389,0.188495
1623.56743,0.18174,0.18699,0.184365,0.16699,0.163,0.164995
1621.50707,0.15875,0.1654,0.162075,0.14491,0.14442,0.144665
1619.4467,0.14218,0.1493,0.14574,0.12883,0.13068,0.129755
1617.38634,0.1268,0.1338,0.1303,0.11329,0.11626,0.114775
1615.32597,0.11156,0.1182,0.11488,0.09799,0.10088,0.099435
1613.26561,0.10079,0.1071,0.103945,0.08807,0.09084,0.089455
1611.20525,0.09208,0.09802,0.09505,0.08105,0.0837,0.082375
1609.14488,0.0837,0.08915,0.086425,0.07482,0.07718,0.076
1607.08452,0.07633,0.0813,0.078815,0.06906,0.07118,0.07012
1605.02415,0.07042,0.07506,0.07274,0.0636,0.06558,0.06459
1602.96379,0.0658,0.07022,0.06801,0.05868,0.06048,0.05958
1600.90342,0.06238,0.06662,0.0645,0.05492,0.05649,0.055705
1598.84306,0.06012,0.06425,0.062185,0.05258,0.05399,0.053285
1596.78269,0.05888,0.06299,0.060935,0.05137,0.05262,0.051995
1594.72233,0.05847,0.06251,0.06049,0.05101,0.05198,0.051495
1592.66196,0.05883,0.06274,0.060785,0.05143,0.05213,0.05178
1590.6016,0.05995,0.06378,0.061865,0.05243,0.05299,0.05271
1588.54123,0.06182,0.06568,0.06375,0.05395,0.05436,0.054155
1586.48087,0.06459,0.06848,0.066535,0.05605,0.05626,0.056155
1584.4205,0.06845,0.07234,0.070395,0.05874,0.05876,0.05875
1582.36014,0.07334,0.07723,0.075285,0.06191,0.06179,0.06185
1580.29977,0.07903,0.08284,0.080935,0.06529,0.06502,0.065155
1578.23941,0.08597,0.08973,0.08785,0.06897,0.06844,0.068705
1576.17904,0.09719,0.10081,0.099,0.07414,0.07304,0.07359
1574.11868,0.11061,0.11357,0.11209,0.0797,0.07825,0.078975
1572.05831,0.12286,0.12486,0.12386,0.08419,0.08274,0.083465
1569.99795,0.13991,0.14067,0.14029,0.08981,0.08791,0.08886
1567.93759,0.1614,0.16067,0.161035,0.09649,0.09393,0.09521
1565.87722,0.18097,0.17887,0.17992,0.10258,0.09966,0.10112
1563.81686,0.19889,0.1954,0.197145,0.10844,0.10524,0.10684
1561.75649,0.2136,0.2088,0.2112,0.11373,0.1104,0.112065
1559.69613,0.23037,0.22456,0.227465,0.12122,0.11682,0.11902
1557.63576,0.25159,0.24504,0.248315,0.13285,0.12553,0.12919
1555.5754,0.26245,0.2552,0.258825,0.1418,0.13279,0.137295
1553.51503,0.26852,0.26084,0.26468,0.15101,0.14072,0.145865
1551.45467,0.27173,0.26422,0.267975,0.16239,0.15041,0.1564
1549.3943,0.27143,0.2646,0.268015,0.17642,0.16197,0.169195
1547.33394,0.26823,0.2622,0.265215,0.19168,0.17441,0.183045
1545.27357,0.26301,0.25784,0.260425,0.20756,0.18763,0.197595
1543.21321,0.25576,0.25171,0.253735,0.22403,0.20161,0.21282
1541.15284,0.24538,0.24292,0.24415,0.23908,0.21408,0.22658
1539.09248,0.23112,0.23021,0.230665,0.24878,0.22199,0.235385
1537.03211,0.22005,0.21958,0.219815,0.24865,0.22397,0.23631
1534.97175,0.21033,0.20997,0.21015,0.24106,0.22051,0.230785
1532.91138,0.19772,0.1978,0.19776,0.22518,0.20929,0.217235
1530.85102,0.18565,0.18632,0.185985,0.2069,0.1956,0.20125
1528.79065,0.17543,0.17649,0.17596,0.1897,0.18251,0.186105
1526.73029,0.16448,0.16577,0.165125,0.17108,0.16717,0.169125
1524.66992,0.15364,0.15511,0.154375,0.15358,0.15204,0.15281
1522.60956,0.14308,0.14487,0.143975,0.13776,0.13787,0.137815
1520.5492,0.13184,0.134,0.13292,0.12194,0.12298,0.12246
1518.48883,0.12224,0.12464,0.12344,0.10989,0.11149,0.11069
1516.42847,0.11327,0.11588,0.114575,0.09998,0.10204,0.10101
1514.3681,0.10495,0.10771,0.10633,0.0911,0.09378,0.09244
1512.30774,0.09794,0.10088,0.09941,0.08397,0.08725,0.08561
1510.24737,0.09176,0.09489,0.093325,0.07806,0.08166,0.07986
1508.18701,0.08561,0.08883,0.08722,0.07227,0.07577,0.07402
1506.12664,0.07792,0.08107,0.079495,0.06493,0.06782,0.066375
1504.06628,0.07222,0.07526,0.07374,0.05982,0.06253,0.061175
1502.00591,0.06854,0.07158,0.07006,0.05679,0.05967,0.05823
1499.94555,0.06501,0.06812,0.066565,0.05379,0.05672,0.055255
1497.88518,0.06131,0.06447,0.06289,0.05048,0.05326,0.05187
1495.82482,0.05784,0.06088,0.05936,0.04743,0.04985,0.04864
1493.76445,0.05536,0.05821,0.056785,0.04538,0.04767,0.046525
1491.70409,0.05353,0.0563,0.054915,0.0441,0.04649,0.045295
1489.64372,0.05182,0.05454,0.05318,0.04353,0.04579,0.04466
1487.58336,0.05056,0.05317,0.051865,0.04443,0.04621,0.04532
1485.52299,0.04989,0.05243,0.05116,0.04717,0.04844,0.047805
1483.46263,0.04974,0.05226,0.051,0.05221,0.05296,0.052585
1481.40226,0.05037,0.05281,0.05159,0.06108,0.06101,0.061045
1479.3419,0.05193,0.05422,0.053075,0.07301,0.07186,0.072435
1477.28154,0.05475,0.05695,0.05585,0.08355,0.08157,0.08256
1475.22117,0.06005,0.06212,0.061085,0.08855,0.08651,0.08753
1473.16081,0.07036,0.07203,0.071195,0.08844,0.08701,0.087725
1471.10044,0.0835,0.08468,0.08409,0.08736,0.08666,0.08701
1469.04008,0.09201,0.09312,0.092565,0.08604,0.08613,0.086085
1466.97971,0.09587,0.09707,0.09647,0.08325,0.08413,0.08369
1464.91935,0.09599,0.0973,0.096645,0.07912,0.08035,0.079735
1462.85898,0.09283,0.09447,0.09365,0.07556,0.07686,0.07621
1460.79862,0.08873,0.09088,0.089805,0.07361,0.0751,0.074355
1458.73825,0.08524,0.08784,0.08654,0.07212,0.07376,0.07294
1456.67789,0.08468,0.08725,0.085965,0.06979,0.07121,0.0705
1454.61752,0.08812,0.08993,0.089025,0.06774,0.0691,0.06842
1452.55716,0.09262,0.09375,0.093185,0.06655,0.06809,0.06732
1450.49679,0.09664,0.09753,0.097085,0.0652,0.06693,0.066065
1448.43643,0.0985,0.09959,0.099045,0.06339,0.06528,0.064335
1446.37606,0.09697,0.09847,0.09772,0.06199,0.06392,0.062955
1444.3157,0.09344,0.09522,0.09433,0.06174,0.06358,0.06266
1442.25533,0.09024,0.09206,0.09115,0.0623,0.06409,0.063195
1440.19497,0.08859,0.09045,0.08952,0.06312,0.0649,0.06401
1438.1346,0.08824,0.09038,0.08931,0.06363,0.0652,0.064415
1436.07424,0.0884,0.09073,0.089565,0.06307,0.06425,0.06366
1434.01388,0.08803,0.09022,0.089125,0.06145,0.06255,0.062
1431.95351,0.08686,0.08914,0.088,0.05946,0.06072,0.06009
1429.89315,0.08536,0.08801,0.086685,0.05758,0.05887,0.058225
1427.83278,0.08425,0.08704,0.085645,0.05704,0.05812,0.05758
1425.77242,0.08383,0.0866,0.085215,0.05903,0.05971,0.05937
1423.71205,0.08397,0.08688,0.085425,0.06437,0.0645,0.064435
1421.65169,0.08412,0.08727,0.085695,0.07181,0.07152,0.071665
1419.59132,0.08339,0.08669,0.08504,0.07881,0.07845,0.07863
1417.53096,0.08094,0.0843,0.08262,0.08047,0.08061,0.08054
1415.47059,0.07707,0.08045,0.07876,0.07526,0.07623,0.075745
1413.41023,0.07267,0.0761,0.074385,0.06758,0.06916,0.06837
1411.34986,0.06855,0.07212,0.070335,0.06072,0.06259,0.061655
1409.2895,0.0654,0.06915,0.067275,0.05611,0.05808,0.057095
1407.22913,0.0634,0.0673,0.06535,0.05369,0.0557,0.054695
1405.16877,0.06229,0.06616,0.064225,0.05279,0.05465,0.05372
1403.1084,0.06176,0.06531,0.063535,0.05264,0.05415,0.053395
1401.04804,0.06152,0.0647,0.06311,0.05261,0.05386,0.053235
1398.98767,0.06146,0.06437,0.062915,0.05265,0.05372,0.053185
1396.92731,0.06182,0.06439,0.063105,0.05304,0.0539,0.05347
1394.86694,0.06291,0.06506,0.063985,0.05381,0.05431,0.05406
1392.80658,0.06463,0.06645,0.06554,0.05468,0.0549,0.05479
1390.74622,0.06667,0.06838,0.067525,0.05554,0.05572,0.05563
1388.68585,0.06939,0.07105,0.07022,0.05663,0.05677,0.0567
1386.62549,0.07291,0.07437,0.07364,0.05768,0.0578,0.05774
1384.56512,0.07611,0.07718,0.076645,0.05793,0.05816,0.058045
1382.50476,0.07816,0.07891,0.078535,0.05766,0.05775,0.057705
1380.44439,0.07887,0.07955,0.07921,0.05735,0.05695,0.05715
1378.38403,0.07821,0.07891,0.07856,0.05689,0.05612,0.056505
1376.32366,0.07653,0.07702,0.076775,0.05652,0.0557,0.05611
1374.2633,0.07392,0.07374,0.07383,0.05637,0.05577,0.05607
1372.20293,0.07101,0.07018,0.070595,0.05608,0.05571,0.055895
1370.14257,0.06896,0.06808,0.06852,0.05584,0.05543,0.055635
1368.0822,0.06855,0.0676,0.068075,0.056,0.05547,0.055735
1366.02184,0.06905,0.06805,0.06855,0.05686,0.05647,0.056665
1363.96147,0.06882,0.06852,0.06867,0.05872,0.0587,0.05871
1361.90111,0.06734,0.06795,0.067645,0.06086,0.06073,0.060795
1359.84074,0.06528,0.06612,0.0657,0.06184,0.06137,0.061605
1357.78038,0.06288,0.06336,0.06312,0.06125,0.0607,0.060975
1355.72001,0.05996,0.06015,0.060055,0.05921,0.05873,0.05897
1353.65965,0.05682,0.05717,0.056995,0.05594,0.0556,0.05577
1351.59928,0.05379,0.05449,0.05414,0.05239,0.05227,0.05233
1349.53892,0.05113,0.05216,0.051645,0.04933,0.04963,0.04948
1347.47856,0.04906,0.05049,0.049775,0.04688,0.04761,0.047245
1345.41819,0.04755,0.04924,0.048395,0.04509,0.04603,0.04556
1343.35783,0.04658,0.04841,0.047495,0.04392,0.04494,0.04443
1341.29746,0.04603,0.04801,0.04702,0.04312,0.04411,0.043615
1339.2371,0.04561,0.04767,0.04664,0.04244,0.04344,0.04294
1337.17673,0.04503,0.04705,0.04604,0.04175,0.04283,0.04229
1335.11637,0.04419,0.0462,0.045195,0.04104,0.04213,0.041585
1333.056,0.04317,0.04517,0.04417,0.04027,0.04127,0.04077
1330.99564,0.04219,0.04419,0.04319,0.03943,0.04042,0.039925
1328.93527,0.04156,0.04368,0.04262,0.03877,0.03984,0.039305
1326.87491,0.04175,0.04411,0.04293,0.03867,0.03973,0.0392
1324.81454,0.04312,0.04572,0.04442,0.03923,0.04012,0.039675
1322.75418,0.04534,0.04813,0.046735,0.04029,0.04096,0.040625
1320.69381,0.04746,0.05043,0.048945,0.04173,0.04233,0.04203
1318.63345,0.04862,0.05161,0.050115,0.04361,0.04423,0.04392
1316.57308,0.04859,0.05132,0.049955,0.04576,0.04637,0.046065
1314.51272,0.04788,0.05032,0.0491,0.04795,0.04845,0.0482
1312.45235,0.04747,0.04981,0.04864,0.04991,0.05027,0.05009
1310.39199,0.0482,0.05045,0.049325,0.0513,0.0516,0.05145
1308.33162,0.0502,0.0523,0.05125,0.0522,0.05254,0.05237
1306.27126,0.05278,0.05475,0.053765,0.05296,0.05337,0.053165
1304.2109,0.05461,0.0565,0.055555,0.05339,0.05384,0.053615
1302.15053,0.05487,0.05668,0.055775,0.05307,0.05353,0.0533
1300.09017,0.05403,0.05569,0.05486,0.05221,0.05266,0.052435
1298.0298,0.05297,0.05446,0.053715,0.05132,0.05184,0.05158
1295.96944,0.05226,0.05371,0.052985,0.0506,0.05124,0.05092
1293.90907,0.05232,0.05375,0.053035,0.04997,0.05067,0.05032
1291.84871,0.05325,0.05449,0.05387,0.04926,0.05,0.04963
1289.78834,0.05485,0.05585,0.05535,0.04836,0.0492,0.04878
1287.72798,0.05726,0.05805,0.057655,0.04726,0.04819,0.047725
1285.66761,0.06044,0.06105,0.060745,0.04626,0.0472,0.04673
1283.60725,0.0633,0.06381,0.063555,0.04565,0.04653,0.04609
1281.54688,0.06433,0.0648,0.064565,0.04534,0.04621,0.045775
1279.48652,0.06311,0.06344,0.063275,0.04514,0.04603,0.045585
1277.42615,0.06072,0.06087,0.060795,0.04509,0.04589,0.04549
1275.36579,0.05852,0.05859,0.058555,0.04517,0.04583,0.0455
1273.30542,0.05731,0.05732,0.057315,0.04525,0.04591,0.04558
1271.24506,0.05724,0.05711,0.057175,0.04536,0.04611,0.045735
1269.18469,0.05814,0.05776,0.05795,0.04562,0.0464,0.04601
1267.12433,0.05999,0.05919,0.05959,0.04617,0.04703,0.0466
1265.06396,0.06312,0.06178,0.06245,0.04741,0.04836,0.047885
1263.0036,0.06784,0.06598,0.06691,0.04998,0.05089,0.050435
1260.94324,0.07353,0.07145,0.07249,0.05443,0.05511,0.05477
1258.88287,0.07919,0.07731,0.07825,0.06016,0.06059,0.060375
1256.82251,0.08504,0.08343,0.084235,0.06468,0.06493,0.064805
1254.76214,0.0923,0.09071,0.091505,0.06518,0.0654,0.06529
1252.70178,0.10167,0.09982,0.100745,0.06128,0.0617,0.06149
1250.64141,0.11182,0.10953,0.110675,0.0552,0.05601,0.055605
1248.58105,0.11918,0.11685,0.118015,0.04954,0.05069,0.050115
1246.52068,0.12161,0.11996,0.120785,0.04562,0.04689,0.046255
1244.46032,0.12106,0.12031,0.120685,0.04358,0.04478,0.04418
1242.39995,0.12032,0.12016,0.12024,0.04319,0.04421,0.0437
1240.33959,0.11983,0.11984,0.119835,0.04439,0.04517,0.04478
1238.27922,0.11849,0.11834,0.118415,0.04725,0.04771,0.04748
1236.21886,0.11557,0.11516,0.115365,0.0516,0.05174,0.05167
1234.15849,0.11075,0.10994,0.110345,0.05643,0.05639,0.05641
1232.09813,0.103,0.1018,0.1024,0.05918,0.05908,0.05913
1230.03776,0.09242,0.09149,0.091955,0.05714,0.05734,0.05724
1227.9774,0.08221,0.08149,0.08185,0.05152,0.05223,0.051875
1225.91703,0.0744,0.07318,0.07379,0.04622,0.04698,0.0466
1223.85667,0.06795,0.06671,0.06733,0.04283,0.04327,0.04305
1221.7963,0.06244,0.06127,0.061855,0.04091,0.04108,0.040995
1219.73594,0.05705,0.05554,0.056295,0.03963,0.03945,0.03954
1217.67558,0.04985,0.04817,0.04901,0.03755,0.03676,0.037155
1215.61521,0.0427,0.0417,0.0422,0.03379,0.03313,0.03346
1213.55485,0.03853,0.03839,0.03846,0.03069,0.03111,0.0309
1211.49448,0.03566,0.03584,0.03575,0.02906,0.03027,0.029665
1209.43412,0.03363,0.03344,0.033535,0.02882,0.03007,0.029445
1207.37375,0.03202,0.03133,0.031675,0.02985,0.03077,0.03031
1205.31339,0.03091,0.03012,0.030515,0.0323,0.03275,0.032525
1203.25302,0.03093,0.03019,0.03056,0.03579,0.03589,0.03584
1201.19266,0.03203,0.03141,0.03172,0.03947,0.03944,0.039455
1199.13229,0.03475,0.03447,0.03461,0.04324,0.04316,0.0432
1197.07193,0.03894,0.03906,0.039,0.04738,0.04743,0.047405
1195.01156,0.04214,0.04251,0.042325,0.05222,0.05235,0.052285
1192.9512,0.04177,0.04224,0.042005,0.05609,0.05626,0.056175
1190.89083,0.03824,0.03863,0.038435,0.05464,0.0552,0.05492
1188.83047,0.0341,0.03435,0.034225,0.04688,0.04813,0.047505
1186.7701,0.03105,0.03124,0.031145,0.03756,0.03923,0.038395
1184.70974,0.02917,0.02942,0.029295,0.03066,0.03239,0.031525
1182.64937,0.02788,0.0282,0.02804,0.02638,0.02806,0.02722
1180.58901,0.02667,0.02707,0.02687,0.02357,0.02522,0.024395
1178.52864,0.02545,0.02583,0.02564,0.02156,0.02316,0.02236
1176.46828,0.02407,0.02449,0.02428,0.02009,0.0216,0.020845
1174.40792,0.02249,0.02321,0.02285,0.01891,0.02033,0.01962
1172.34755,0.02089,0.02211,0.0215,0.01785,0.0193,0.018575
1170.28719,0.01944,0.02122,0.02033,0.017,0.01845,0.017725
1168.22682,0.01816,0.02046,0.01931,0.01637,0.01773,0.01705
1166.16646,0.0171,0.01982,0.01846,0.01587,0.01706,0.016465
1164.10609,0.01622,0.01929,0.017755,0.01538,0.01639,0.015885
1162.04573,0.01547,0.01865,0.01706,0.01478,0.01575,0.015265
1159.98536,0.01475,0.01787,0.01631,0.01405,0.0151,0.014575
1157.925,0.01401,0.01706,0.015535,0.01334,0.01441,0.013875
1155.86463,0.0133,0.01622,0.01476,0.01269,0.0137,0.013195
1153.80427,0.01271,0.01541,0.01406,0.01204,0.01302,0.01253
1151.7439,0.01236,0.01485,0.013605,0.01158,0.01254,0.01206
1149.68354,0.0124,0.01468,0.01354,0.01161,0.01255,0.01208
1147.62317,0.01288,0.015,0.01394,0.01226,0.01322,0.01274
1145.56281,0.01396,0.01594,0.01495,0.01338,0.01442,0.0139
1143.50244,0.01582,0.01752,0.01667,0.01467,0.01577,0.01522
1141.44208,0.01823,0.0196,0.018915,0.01589,0.01693,0.01641
1139.38171,0.02074,0.02191,0.021325,0.01685,0.01783,0.01734
1137.32135,0.02306,0.02423,0.023645,0.01746,0.01849,0.017975
1135.26098,0.02501,0.02629,0.02565,0.01779,0.01887,0.01833
1133.20062,0.02653,0.02792,0.027225,0.01786,0.01898,0.01842
1131.14026,0.02781,0.02935,0.02858,0.01765,0.01885,0.01825
1129.07989,0.029,0.03078,0.02989,0.01721,0.01846,0.017835
1127.01953,0.02993,0.0319,0.030915,0.01669,0.01797,0.01733
1124.95916,0.02996,0.03208,0.03102,0.01622,0.01752,0.01687
1122.8988,0.02855,0.0309,0.029725,0.0159,0.01718,0.01654
1120.83843,0.02601,0.02875,0.02738,0.01563,0.01693,0.01628
1118.77807,0.02326,0.02651,0.024885,0.01519,0.0165,0.015845
1116.7177,0.02106,0.02469,0.022875,0.01457,0.01577,0.01517
1114.65734,0.01966,0.02353,0.021595,0.01395,0.015,0.014475
1112.59697,0.01876,0.02276,0.02076,0.01345,0.01441,0.01393
1110.53661,0.01803,0.02195,0.01999,0.01292,0.01391,0.013415
1108.47624,0.01754,0.02114,0.01934,0.01238,0.01352,0.01295
1106.41588,0.01718,0.02044,0.01881,0.012,0.01327,0.012635
1104.35551,0.01673,0.01976,0.018245,0.01171,0.0131,0.012405
1102.29515,0.01614,0.01906,0.0176,0.01145,0.0129,0.012175
1100.23478,0.01549,0.01832,0.016905,0.01127,0.01266,0.011965
1098.17442,0.01499,0.01763,0.01631,0.01112,0.01242,0.01177
1096.11405,0.01467,0.01707,0.01587,0.01094,0.01222,0.01158
1094.05369,0.01435,0.01652,0.015435,0.0107,0.01203,0.011365
1091.99332,0.01416,0.01606,0.01511,0.01051,0.01183,0.01117
1089.93296,0.01425,0.01591,0.01508,0.01046,0.01173,0.011095
1087.8726,0.01447,0.01598,0.015225,0.01053,0.0118,0.011165
1085.81223,0.0148,0.01621,0.015505,0.01063,0.0119,0.011265
1083.75187,0.01524,0.01664,0.01594,0.01073,0.01196,0.011345
1081.6915,0.01567,0.01721,0.01644,0.01085,0.01203,0.01144
1079.63114,0.01606,0.01788,0.01697,0.01081,0.01192,0.011365
1077.57077,0.01641,0.01858,0.017495,0.01049,0.01147,0.01098
1075.51041,0.01656,0.01914,0.01785,0.01003,0.01094,0.010485
1073.45004,0.01641,0.01939,0.0179,0.00956,0.01051,0.010035
1071.38968,0.0161,0.01939,0.017745,0.0091,0.01006,0.00958
1069.32931,0.01566,0.01932,0.01749,0.00875,0.00965,0.0092
1067.26895,0.01505,0.01928,0.017165,0.00862,0.00952,0.00907
1065.20858,0.01444,0.01934,0.01689,0.00863,0.00961,0.00912
1063.14822,0.014,0.01952,0.01676,0.0086,0.00961,0.009105
1061.08785,0.01367,0.01975,0.01671,0.00853,0.00946,0.008995
1059.02749,0.01312,0.01967,0.016395,0.00835,0.00917,0.00876
1056.96712,0.01223,0.01903,0.01563,0.00804,0.00882,0.00843
1054.90676,0.01122,0.01809,0.014655,0.00794,0.00875,0.008345
1052.84639,0.01037,0.01722,0.013795,0.00831,0.00913,0.00872
1050.78603,0.00977,0.01646,0.013115,0.00901,0.00977,0.00939
1048.72566,0.00938,0.01576,0.01257,0.00988,0.01054,0.01021
1046.6653,0.00916,0.01519,0.012175,0.01072,0.01136,0.01104
1044.60494,0.00917,0.01484,0.012005,0.01118,0.01185,0.011515
1042.54457,0.00931,0.01472,0.012015,0.01107,0.01173,0.0114
1040.48421,0.00954,0.01489,0.012215,0.0106,0.01123,0.010915
1038.42384,0.00984,0.01534,0.01259,0.01002,0.01068,0.01035
1036.36348,0.0102,0.01605,0.013125,0.00944,0.01013,0.009785
1034.30311,0.01084,0.01703,0.013935,0.00892,0.00957,0.009245
1032.24275,0.01202,0.01833,0.015175,0.00851,0.00906,0.008785
1030.18238,0.01371,0.01991,0.01681,0.00823,0.00868,0.008455
1028.12202,0.01541,0.02144,0.018425,0.00802,0.00845,0.008235
1026.06165,0.01638,0.02229,0.019335,0.0078,0.00828,0.00804
1024.00129,0.01641,0.02212,0.019265,0.00745,0.00799,0.00772
1021.94092,0.01571,0.02117,0.01844,0.00703,0.00761,0.00732
1019.88056,0.01454,0.01984,0.01719,0.00673,0.00733,0.00703
1017.82019,0.01333,0.01864,0.015985,0.00652,0.00717,0.006845
1015.75983,0.01252,0.01786,0.01519,0.00651,0.0072,0.006855
1013.69946,0.0122,0.01751,0.014855,0.00708,0.00766,0.00737
1011.6391,0.0123,0.01762,0.01496,0.00812,0.00847,0.008295
1009.57873,0.01263,0.01804,0.015335,0.00912,0.00944,0.00928
1007.51837,0.01276,0.01831,0.015535,0.00957,0.00997,0.00977
1005.458,0.01241,0.01813,0.01527,0.00931,0.00969,0.0095
1003.39764,0.01166,0.01763,0.014645,0.00874,0.00914,0.00894
1001.33728,0.01078,0.01701,0.013895,0.00827,0.00867,0.00847
999.27691,0.00989,0.01622,0.013055,0.00769,0.00799,0.00784
997.21655,0.00886,0.01512,0.01199,0.00679,0.007,0.006895
995.15618,0.00755,0.01369,0.01062,0.00588,0.00602,0.00595
993.09582,0.00617,0.01219,0.00918,0.0053,0.00543,0.005365
991.03545,0.00502,0.01095,0.007985,0.00506,0.0052,0.00513
988.97509,0.00427,0.01012,0.007195,0.005,0.00513,0.005065
986.91472,0.00379,0.00964,0.006715,0.00493,0.00503,0.00498
984.85436,0.00346,0.00934,0.0064,0.00486,0.0049,0.00488
982.79399,0.00331,0.0091,0.006205,0.00479,0.00475,0.00477
980.73363,0.00322,0.00887,0.006045,0.00466,0.00457,0.004615
978.67326,0.00314,0.00852,0.00583,0.00453,0.00445,0.00449
976.6129,0.00308,0.00809,0.005585,0.0044,0.00445,0.004425
974.55253,0.00309,0.0078,0.005445,0.0043,0.00445,0.004375
972.49217,0.00326,0.00769,0.005475,0.00432,0.00443,0.004375
970.4318,0.00362,0.00774,0.00568,0.00444,0.00435,0.004395
968.37144,0.00413,0.00801,0.00607,0.00453,0.00427,0.0044
966.31107,0.00492,0.00864,0.00678,0.00461,0.00433,0.00447
964.25071,0.00616,0.00979,0.007975,0.00477,0.00459,0.00468
962.19034,0.00782,0.01137,0.009595,0.0051,0.00508,0.00509
960.12998,0.00968,0.01311,0.011395,0.00572,0.00577,0.005745
958.06962,0.01153,0.01478,0.013155,0.0067,0.00664,0.00667
956.00925,0.01334,0.01641,0.014875,0.00825,0.00803,0.00814
953.94889,0.01533,0.01825,0.01679,0.01073,0.01039,0.01056
951.88852,0.01776,0.02052,0.01914,0.01402,0.01365,0.013835
949.82816,0.02085,0.02333,0.02209,0.0174,0.01706,0.01723
947.76779,0.02433,0.02643,0.02538,0.01944,0.01925,0.019345
945.70743,0.02684,0.02869,0.027765,0.01903,0.01906,0.019045
943.64706,0.02699,0.02868,0.027835,0.0165,0.01666,0.01658
941.5867,0.02475,0.02623,0.02549,0.01298,0.01317,0.013075
939.52633,0.02106,0.02238,0.02172,0.00951,0.00967,0.00959
937.46597,0.01706,0.01825,0.017655,0.00683,0.00691,0.00687
935.4056,0.01353,0.01465,0.01409,0.00519,0.00518,0.005185
933.34524,0.01069,0.0118,0.011245,0.00428,0.00436,0.00432
931.28487,0.0085,0.00957,0.009035,0.00381,0.00412,0.003965
929.22451,0.00701,0.00793,0.00747,0.00356,0.00397,0.003765
927.16414,0.00596,0.00669,0.006325,0.00331,0.00359,0.00345
925.10378,0.00503,0.00569,0.00536,0.00308,0.00313,0.003105
923.04341,0.00416,0.00484,0.0045,0.00268,0.00263,0.002655
920.98305,0.00331,0.00392,0.003615,0.00204,0.00211,0.002075
918.92268,0.00247,0.00295,0.00271,0.00152,0.00163,0.001575
916.86232,0.00182,0.00216,0.00199,0.00124,0.0012,0.00122
914.80195,0.00145,0.00163,0.00154,0.00112,0.00092,0.00102
912.74159,0.00124,0.00127,0.001255,0.00099,0.00077,0.00088
910.68123,0.00092,0.00085,0.000885,0.00072,0.00059,0.000655
908.62086,0.0005,0.0005,0.0005,0.00044,0.00042,0.00043
906.5605,0.00034,0.00052,0.00043,0.00033,0.00025,0.00029
904.50013,0.00041,0.00074,0.000575,0.00018,0.00008,0.00013
902.43977,0.00039,0.0007,0.000545,0,0,0
900.3794,0.00018,0.00045,0.000315,0.00007,-0.00002,0.000025
898.31904,0,0.00036,0.00018,0.00036,0.00015,0.000255
896.25867,0,0.0004,0.0002,0.00055,0.00047,0.00051
894.19831,0.00012,0.00043,0.000275,0.00057,0.00057,0.00057
892.13794,0.00006,0.00037,0.000215,0.00047,0.00041,0.00044
890.07758,-0.0003,0.00013,-0.000085,0.00034,0.00027,0.000305
888.01721,-0.00061,0,-0.000305,0.00025,0.00027,0.00026
885.95685,-0.00046,0.0001,-0.00018,0.00024,0.00041,0.000325
883.89648,-0.00007,0.00012,0.000025,0.0002,0.00037,0.000285
881.83612,0.00008,0,0.00004,0.00006,0.00011,0.000085
879.77575,0.00006,0,0.00003,0,0,0
877.71539,0.00012,0.00026,0.00019,0.00007,0.00008,0.000075
875.65502,0.00018,0.00038,0.00028,0.00015,0.0002,0.000175
873.59466,0.00022,0.00031,0.000265,0.00015,0.00041,0.00028
871.53429,0.00036,0.00028,0.00032,0.00011,0.00063,0.00037
869.47393,0.00054,0.00039,0.000465,0.00015,0.00068,0.000415
867.41357,0.00056,0.00054,0.00055,0.00031,0.00061,0.00046
865.3532,0.0005,0.00063,0.000565,0.00053,0.00066,0.000595
863.29284,0.00059,0.00069,0.00064,0.00069,0.00096,0.000825
861.23247,0.00076,0.00077,0.000765,0.0008,0.0013,0.00105
859.17211,0.00087,0.00099,0.00093,0.00116,0.00176,0.00146
857.11174,0.00113,0.00129,0.00121,0.00203,0.00264,0.002335
855.05138,0.00164,0.00153,0.001585,0.00319,0.00358,0.003385
852.99101,0.00196,0.00165,0.001805,0.00391,0.00402,0.003965
850.93065,0.00172,0.0015,0.00161,0.00366,0.00376,0.00371
848.87028,0.0012,0.00107,0.001135,0.00275,0.00302,0.002885
846.80992,0.00077,0.0006,0.000685,0.00181,0.00223,0.00202
844.74955,0.00056,0.0003,0.00043,0.00122,0.00162,0.00142
842.68919,0.00057,0.00027,0.00042,0.00122,0.00137,0.001295
840.62882,0.00061,0.00039,0.0005,0.00161,0.00152,0.001565
838.56846,0.00053,0.00038,0.000455,0.00182,0.00167,0.001745
836.50809,0.00067,0.00041,0.00054,0.00188,0.00173,0.001805
834.44773,0.00115,0.00076,0.000955,0.00199,0.00194,0.001965
832.38736,0.00159,0.00124,0.001415,0.00221,0.00241,0.00231
830.327,0.00193,0.00155,0.00174,0.00262,0.00305,0.002835
828.26663,0.00247,0.00178,0.002125,0.00298,0.00365,0.003315
826.20627,0.00313,0.00217,0.00265,0.0032,0.00397,0.003585
824.14591,0.00362,0.00263,0.003125,0.00359,0.00426,0.003925
822.08554,0.00397,0.00304,0.003505,0.00425,0.00487,0.00456
820.02518,0.00443,0.00352,0.003975,0.00474,0.00544,0.00509
817.96481,0.00506,0.00408,0.00457,0.00501,0.00559,0.0053
815.90445,0.00576,0.00461,0.005185,0.00535,0.00573,0.00554
813.84408,0.00632,0.00493,0.005625,0.00566,0.00613,0.005895
811.78372,0.00685,0.00529,0.00607,0.00607,0.00671,0.00639
809.72335,0.00778,0.0061,0.00694,0.00665,0.00731,0.00698
807.66299,0.00889,0.00719,0.00804,0.00701,0.00771,0.00736
805.60262,0.00976,0.00828,0.00902,0.00733,0.00795,0.00764
803.54226,0.01054,0.00935,0.009945,0.00789,0.0083,0.008095
801.48189,0.01139,0.01032,0.010855,0.00842,0.00875,0.008585
799.42153,0.0121,0.01111,0.011605,0.00874,0.00917,0.008955
797.36116,0.01266,0.01177,0.012215,0.00908,0.00955,0.009315
795.3008,0.01325,0.01246,0.012855,0.00958,0.00995,0.009765
793.24043,0.01402,0.0132,0.01361,0.0101,0.01041,0.010255
791.18007,0.01477,0.01395,0.01436,0.01052,0.01086,0.01069
789.1197,0.01532,0.01476,0.01504,0.01077,0.01111,0.01094
787.05934,0.016,0.01557,0.015785,0.01112,0.01125,0.011185
784.99897,0.01686,0.01638,0.01662,0.01166,0.0114,0.01153
782.93861,0.01765,0.01734,0.017495,0.01218,0.01172,0.01195
780.87825,0.01858,0.01855,0.018565,0.01278,0.01237,0.012575
778.81788,0.01968,0.01982,0.01975,0.01351,0.0131,0.013305
776.75752,0.02066,0.02083,0.020745,0.01422,0.01373,0.013975
774.69715,0.02152,0.02161,0.021565,0.01489,0.01453,0.01471
772.63679,0.02237,0.02248,0.022425,0.01568,0.0155,0.01559
770.57642,0.02329,0.02366,0.023475,0.01669,0.01644,0.016565
768.51606,0.0243,0.02497,0.024635,0.01758,0.01722,0.0174
766.45569,0.02555,0.02619,0.02587,0.01803,0.01777,0.0179
764.39533,0.02709,0.0273,0.027195,0.01847,0.01834,0.018405
762.33496,0.02851,0.02839,0.02845,0.01926,0.01916,0.01921
760.2746,0.02978,0.02952,0.02965,0.02028,0.02014,0.02021
758.21423,0.03134,0.03088,0.03111,0.02157,0.02124,0.021405
756.15387,0.03328,0.0328,0.03304,0.02326,0.02271,0.022985
754.0935,0.03555,0.03532,0.035435,0.02513,0.02462,0.024875
752.03314,0.03834,0.03828,0.03831,0.02694,0.02659,0.026765
749.97277,0.04163,0.04146,0.041545,0.02884,0.02843,0.028635
747.91241,0.04477,0.04432,0.044545,0.03127,0.03064,0.030955
745.85204,0.04698,0.04632,0.04665,0.03432,0.03341,0.033865
743.79168,0.04834,0.04765,0.047995,0.03743,0.03618,0.036805
741.73131,0.04932,0.04872,0.04902,0.03932,0.03804,0.03868
739.67095,0.05013,0.04958,0.049855,0.03926,0.03826,0.03876
737.61059,0.05109,0.05043,0.05076,0.0383,0.03738,0.03784
735.55022,0.05248,0.05161,0.052045,0.0377,0.03672,0.03721
733.48986,0.05442,0.05354,0.05398,0.03798,0.037,0.03749
731.42949,0.05759,0.05691,0.05725,0.03934,0.03829,0.038815
729.36913,0.06238,0.06193,0.062155,0.04182,0.0406,0.04121
727.30876,0.06832,0.06819,0.068255,0.04551,0.04409,0.0448
725.2484,0.07492,0.07506,0.07499,0.05037,0.04884,0.049605
723.18803,0.08095,0.08102,0.080985,0.05549,0.05394,0.054715
721.12767,0.08426,0.08424,0.08425,0.05915,0.05765,0.0584
719.0673,0.08368,0.08404,0.08386,0.06017,0.05879,0.05948
717.00694,0.08073,0.08176,0.081245,0.05936,0.05813,0.058745
714.94657,0.0782,0.07966,0.07893,0.05877,0.0577,0.058235
712.88621,0.07734,0.07903,0.078185,0.05938,0.05837,0.058875
710.82584,0.07787,0.07988,0.078875,0.06067,0.05965,0.06016
708.76548,0.07935,0.08151,0.08043,0.06224,0.06123,0.061735
706.70511,0.0813,0.08303,0.082165,0.06429,0.06312,0.063705
704.64475,0.08301,0.08408,0.083545,0.06679,0.06525,0.06602
702.58438,0.08399,0.0848,0.084395,0.06958,0.06774,0.06866
700.52402,0.08381,0.08497,0.08439,0.0729,0.07087,0.071885
698.46365,0.0824,0.08422,0.08331,0.07682,0.07455,0.075685
696.40329,0.08049,0.0828,0.081645,0.08114,0.0786,0.07987
694.34293,0.07888,0.08123,0.080055,0.08561,0.0829,0.084255
692.28256,0.07779,0.07985,0.07882,0.08947,0.08675,0.08811
690.2222,0.07681,0.07874,0.077775,0.09178,0.08923,0.090505
688.16183,0.0756,0.07742,0.07651,0.0924,0.09019,0.091295
686.10147,0.07397,0.07555,0.07476,0.09163,0.08997,0.0908
684.0411,0.07198,0.07352,0.07275,0.08979,0.08875,0.08927
681.98074,0.06978,0.07147,0.070625,0.08717,0.08658,0.086875
679.92037,0.06733,0.06934,0.068335,0.08365,0.08356,0.083605
677.86001,0.06486,0.06725,0.066055,0.07939,0.07992,0.079655
675.79964,0.06262,0.06511,0.063865,0.075,0.0762,0.0756
673.73928,0.06044,0.063,0.06172,0.07113,0.07292,0.072025
671.67891,0.05813,0.06111,0.05962,0.06803,0.07026,0.069145
669.61855,0.05552,0.05906,0.05729,0.06501,0.06747,0.06624
667.55818,0.05267,0.05663,0.05465,0.06087,0.06331,0.06209
665.49782,0.05047,0.05485,0.05266,0.05721,0.05965,0.05843
663.43745,0.04846,0.05315,0.050805,0.05461,0.05711,0.05586
661.37709,0.04643,0.05105,0.04874,0.0522,0.05448,0.05334
659.31672,0.04482,0.04891,0.046865,0.04967,0.05188,0.050775
657.25636,0.04355,0.04715,0.04535,0.04702,0.04963,0.048325
655.19599,0.04243,0.04612,0.044275,0.04468,0.0476,0.04614
653.13563,0.04153,0.0455,0.043515,0.0429,0.04581,0.044355
651.07527,0.04086,0.04481,0.042835,0.04147,0.04427,0.04287
649.0149,0.04019,0.04402,0.042105,0.04013,0.04284,0.041485
646.95454,0.03969,0.04362,0.041655,0.03888,0.04156,0.04022
644.89417,0.03982,0.044,0.04191,0.03796,0.04062,0.03929
642.83381,0.0403,0.04486,0.04258,0.03751,0.04001,0.03876
640.77344,0.04109,0.04582,0.043455,0.03717,0.03949,0.03833
638.71308,0.04264,0.04697,0.044805,0.03651,0.039,0.037755
636.65271,0.04448,0.04838,0.04643,0.03584,0.03861,0.037225
634.59235,0.0464,0.04995,0.048175,0.03576,0.03845,0.037105
632.53198,0.04859,0.05174,0.050165,0.03617,0.03858,0.037375
630.47162,0.05035,0.05337,0.05186,0.03646,0.03868,0.03757
628.41125,0.05099,0.05422,0.052605,0.03645,0.03855,0.0375
626.35089,0.05052,0.05397,0.052245,0.03642,0.03859,0.037505
624.29052,0.04923,0.05296,0.051095,0.03657,0.03901,0.03779
622.23016,0.04781,0.05218,0.049995,0.03676,0.03925,0.038005
620.16979,0.04666,0.05167,0.049165,0.03678,0.03897,0.037875
618.10943,0.04566,0.05074,0.0482,0.03684,0.03865,0.037745
616.04906,0.04497,0.0499,0.047435,0.03696,0.03866,0.03781
613.9887,0.04459,0.04981,0.0472,0.03699,0.03883,0.03791
611.92833,0.04418,0.04978,0.04698,0.03709,0.03916,0.038125
609.86797,0.0438,0.04929,0.046545,0.03735,0.03949,0.03842
607.80761,0.04375,0.04893,0.04634,0.03805,0.03992,0.038985
605.74724,0.04402,0.04911,0.046565,0.0392,0.04053,0.039865
603.68688,0.04442,0.04954,0.04698,0.0401,0.0412,0.04065
601.62651,0.04491,0.05035,0.04763,0.0407,0.04211,0.041405
599.56615,0.04569,0.05145,0.04857,0.04155,0.04321,0.04238
597.50578,0.04653,0.05196,0.049245,0.04298,0.04468,0.04383
595.44542,0.04711,0.05182,0.049465,0.04506,0.04688,0.04597
593.38505,0.04751,0.05172,0.049615,0.04744,0.04939,0.048415
591.32469,0.04797,0.05199,0.04998,0.04991,0.05159,0.05075
589.26432,0.04838,0.05247,0.050425,0.05271,0.05371,0.05321
587.20396,0.04827,0.05266,0.050465,0.05601,0.05692,0.056465
585.14359,0.04777,0.05256,0.050165,0.06,0.06144,0.06072
583.08323,0.04715,0.05209,0.04962,0.0645,0.06592,0.06521
581.02286,0.04585,0.05083,0.04834,0.06795,0.06928,0.068615
578.9625,0.04357,0.04917,0.04637,0.06868,0.07053,0.069605
576.90213,0.04123,0.04735,0.04429,0.06631,0.06872,0.067515
574.84177,0.0392,0.04477,0.041985,0.0616,0.06449,0.063045
572.7814,0.03721,0.04178,0.039495,0.05614,0.05938,0.05776
570.72104,0.03521,0.0393,0.037255,0.05089,0.05437,0.05263
568.66067,0.03305,0.03764,0.035345,0.04606,0.04981,0.047935
566.60031,0.0308,0.03641,0.033605,0.04178,0.04573,0.043755
564.53995,0.02874,0.03498,0.03186,0.03825,0.04235,0.0403
562.47958,0.02689,0.03346,0.030175,0.03608,0.03979,0.037935
560.41922,0.02525,0.03228,0.028765,0.03489,0.03779,0.03634
558.35885,0.02401,0.03111,0.02756,0.03377,0.03665,0.03521
556.29849,0.02301,0.02976,0.026385,0.03274,0.03632,0.03453
554.23812,0.02196,0.02859,0.025275,0.03211,0.03601,0.03406
552.17776,0.02114,0.02754,0.02434,0.032,0.03541,0.033705
550.11739,0.02042,0.02634,0.02338,0.03243,0.03506,0.033745
548.05703,0.01959,0.02526,0.022425,0.0337,0.03563,0.034665
545.99666,0.01893,0.02413,0.02153,0.03612,0.03726,0.03669
543.9363,0.01855,0.02287,0.02071,0.03859,0.03932,0.038955
541.87593,0.0181,0.02216,0.02013,0.03946,0.04051,0.039985
539.81557,0.01748,0.02178,0.01963,0.03852,0.04009,0.039305
537.7552,0.01686,0.02114,0.019,0.03636,0.03832,0.03734
535.69484,0.01649,0.0202,0.018345,0.03396,0.03596,0.03496
533.63447,0.01662,0.01974,0.01818,0.03189,0.03388,0.032885
531.57411,0.01664,0.01994,0.01829,0.0301,0.03216,0.03113
529.51374,0.01561,0.0196,0.017605,0.02866,0.03072,0.02969
527.45338,0.01396,0.01861,0.016285,0.02711,0.02929,0.0282
525.39301,0.01288,0.01775,0.015315,0.02563,0.02792,0.026775
523.33265,0.01215,0.01674,0.014445,0.02504,0.0268,0.02592
521.27229,0.01108,0.01562,0.01335,0.02458,0.02532,0.02495
519.21192,0.01029,0.01493,0.01261,0.0237,0.02388,0.02379
517.15156,0.01087,0.01454,0.012705,0.02305,0.02347,0.02326
515.09119,0.01166,0.01393,0.012795,0.02253,0.02366,0.023095
513.03083,0.01138,0.01341,0.012395,0.02136,0.02312,0.02224
510.97046,0.01071,0.01323,0.01197,0.02026,0.02214,0.0212
508.9101,0.0104,0.01331,0.011855,0.02024,0.0219,0.02107
506.84973,0.01048,0.01371,0.012095,0.02037,0.02187,0.02112
504.78937,0.01071,0.01382,0.012265,0.01973,0.02131,0.02052
502.729,0.0108,0.01297,0.011885,0.01888,0.0208,0.01984
500.66864,0.01099,0.01218,0.011585,0.01842,0.02049,0.019455
498.60827,0.01152,0.01253,0.012025,0.01823,0.01997,0.0191
496.54791,0.01145,0.01279,0.01212,0.01827,0.01986,0.019065
494.48754,0.01044,0.01235,0.011395,0.01872,0.02048,0.0196
492.42718,0.01003,0.01255,0.01129,0.01892,0.02016,0.01954
490.36681,0.01118,0.0134,0.01229,0.01819,0.01885,0.01852
488.30645,0.01284,0.01392,0.01338,0.01716,0.01814,0.01765
486.24608,0.01378,0.01399,0.013885,0.01647,0.01758,0.017025
484.18572,0.01342,0.01359,0.013505,0.01616,0.01684,0.0165
482.12535,0.01176,0.01283,0.012295,0.01587,0.01655,0.01621
480.06499,0.00947,0.01145,0.01046,0.01478,0.01606,0.01542
478.00463,0.00714,0.00925,0.008195,0.013,0.01487,0.013935
475.94426,0.00529,0.00693,0.00611,0.01203,0.01394,0.012985
473.8839,0.00415,0.00483,0.00449,0.01214,0.01377,0.012955
471.82353,0.00309,0.00312,0.003105,0.01185,0.01319,0.01252
469.76317,0.00201,0.00215,0.00208,0.01099,0.01194,0.011465
467.7028,0.00162,0.00184,0.00173,0.01063,0.01119,0.01091
465.64244,0.00155,0.00178,0.001665,0.01083,0.01089,0.01086
463.58207,0.00146,0.00172,0.00159,0.01111,0.01079,0.01095
461.52171,0.00159,0.00164,0.001615,0.01115,0.01123,0.01119
459.46134,0.00162,0.00096,0.00129,0.01067,0.01165,0.01116
457.40098,0.00127,0,0.000635,0.00952,0.01082,0.01017
455.34061,0.00049,-0.00024,0.000125,0.00823,0.00911,0.00867
453.28025,0,-0.00008,-0.00004,0.00801,0.00862,0.008315
451.21988,0.00053,-0.00002,0.000255,0.00863,0.00935,0.00899
449.15952,0.00144,0.00033,0.000885,0.00852,0.00923,0.008875
447.09915,0.00172,0.00104,0.00138,0.00812,0.00825,0.008185
445.03879,0.00194,0.00161,0.001775,0.00827,0.00755,0.00791
442.97842,0.00294,0.0023,0.00262,0.00818,0.00659,0.007385
440.91806,0.00421,0.00379,0.004,0.00757,0.00513,0.00635
438.85769,0.00496,0.00533,0.005145,0.00664,0.00434,0.00549
436.79733,0.00584,0.00588,0.00586,0.00631,0.00488,0.005595
434.73697,0.00751,0.00632,0.006915,0.00707,0.00578,0.006425
432.6766,0.00963,0.00819,0.00891,0.00728,0.00605,0.006665
430.61624,0.01216,0.0111,0.01163,0.00647,0.00646,0.006465
428.55587,0.0145,0.01363,0.014065,0.00624,0.0072,0.00672
426.49551,0.01619,0.01536,0.015775,0.00657,0.00654,0.006555
424.43514,0.01836,0.01705,0.017705,0.00577,0.004,0.004885
422.37478,0.02127,0.01823,0.01975,0.0043,0.00182,0.00306
420.31441,0.02385,0.01909,0.02147,0.00404,0.00171,0.002875
418.25405,0.02504,0.02099,0.023015,0.00421,0.00198,0.003095
416.19368,0.02415,0.02266,0.023405,0.00323,0.00083,0.00203
414.13332,0.02309,0.02419,0.02364,0.00253,0,0.001265
412.07295,0.02287,0.02545,0.02416,0.00229,-0.00122,0.000535
410.01259,0.02174,0.02365,0.022695,0.00095,-0.00233,-0.00069
407.95222,0.01827,0.01868,0.018475,0,-0.00262,-0.00131
405.89186,0.01348,0.01304,0.01326,0.00009,-0.0021,-0.001005
403.83149,0.00845,0.00824,0.008345,0.00048,-0.00162,-0.00057
401.77113,0.00337,0.00437,0.00387,0.00001,-0.00059,-0.00029
399.71076,0,0,0,0,0,0